SpectraSuite Data File
++++++++++++++++++++++++++++++++++++
Date: Wed May 13 19:26:41 PDT 2015
User: schluterlab
Dark Spectrum Present: Yes
Reference Spectrum Present: Yes
Number of Sampled Component Spectra: 1
Spectrometers: USB2E3373
Integration Time (usec): 3000 (USB2E3373)
Spectra Averaged: 3 (USB2E3373)
Boxcar Smoothing: 0 (USB2E3373)
Correct for Electrical Dark: No (USB2E3373)
Strobe/Lamp Enabled: No (USB2E3373)
Correct for Detector Non-linearity: No (USB2E3373)
Correct for Stray Light: No (USB2E3373)
Number of Pixels in Processed Spectrum: 2048
>>>>>Begin Processed Spectral Data<<<<<
178.53	0.000
178.91	-1350.000
179.29	-1325.000
179.67	-211.111
180.04	-1275.000
180.42	2900.000
180.80	980.000
181.18	-1000.000
181.56	714.286
181.94	0.000
182.31	-585.714
182.69	1700.000
183.07	-562.500
183.45	-511.111
183.83	536.364
184.20	-400.000
184.58	2650.000
184.96	6100.000
185.34	-800.000
185.72	-637.500
186.09	-2900.000
186.47	2500.000
186.85	2600.000
187.23	5300.000
187.61	-1933.333
187.98	1350.000
188.36	609.091
188.74	500.000
189.12	-920.000
189.49	650.000
189.87	-3900.000
190.25	-1375.000
190.63	407.143
191.00	530.769
191.38	983.333
191.76	-1275.000
192.14	1500.000
192.51	625.000
192.89	966.667
193.27	700.000
193.65	-1075.000
194.02	570.000
194.40	960.000
194.78	550.000
195.15	525.000
195.53	630.000
195.91	-2200.000
196.29	350.000
196.66	342.105
197.04	-350.000
197.42	0.000
197.79	610.000
198.17	-6100.000
198.55	700.000
198.92	787.500
199.30	980.000
199.68	0.000
200.05	300.000
200.43	885.714
200.81	4600.000
201.18	1833.333
201.56	-1800.000
201.94	577.778
202.31	611.111
202.69	391.667
203.07	530.000
203.44	0.000
203.82	1325.000
204.19	785.714
204.57	414.286
204.95	650.000
205.32	1766.667
205.70	500.000
206.08	378.571
206.45	2450.000
206.83	412.500
207.20	1000.000
207.58	1120.000
207.96	322.222
208.33	750.000
208.71	-1100.000
209.08	828.571
209.46	644.444
209.84	500.000
210.21	-1600.000
210.59	1150.000
210.96	-462.500
211.34	2650.000
211.71	670.000
212.09	850.000
212.46	0.000
212.84	2066.667
213.22	1325.000
213.59	-4400.000
213.97	850.000
214.34	914.286
214.72	554.545
215.09	1140.000
215.47	-2250.000
215.84	-2750.000
216.22	1533.333
216.59	457.143
216.97	1250.000
217.34	454.545
217.72	-700.000
218.09	0.000
218.47	-5100.000
218.84	544.444
219.22	814.286
219.59	1933.333
219.97	-571.429
220.34	1180.000
220.72	-1833.333
221.09	428.571
221.47	1625.000
221.84	-983.333
222.22	0.000
222.59	1650.000
222.97	-2850.000
223.34	1000.000
223.72	453.846
224.09	960.000
224.46	2550.000
224.84	-4600.000
225.21	-860.000
225.59	-5500.000
225.96	710.000
226.34	290.000
226.71	3100.000
227.08	662.500
227.46	570.000
227.83	-1300.000
228.21	-2350.000
228.58	600.000
228.95	-2800.000
229.33	-2450.000
229.70	1766.667
230.08	871.429
230.45	-880.000
230.82	425.000
231.20	933.333
231.57	642.857
231.95	500.000
232.32	259.091
232.69	472.727
233.07	714.286
233.44	438.462
233.81	-1833.333
234.19	294.737
234.56	433.333
234.93	416.667
235.31	381.818
235.68	323.077
236.05	357.143
236.43	175.758
236.80	263.158
237.17	5600.000
237.55	252.381
237.92	192.857
238.29	276.190
238.67	151.613
239.04	237.931
239.41	144.444
239.79	110.870
240.16	138.095
240.53	140.909
240.91	109.804
241.28	126.000
241.65	104.000
242.02	110.145
242.40	100.000
242.77	100.000
243.14	74.194
243.51	74.157
243.89	64.706
244.26	70.000
244.63	72.043
245.00	64.894
245.38	58.416
245.75	61.682
246.12	52.294
246.49	54.745
246.87	59.200
247.24	46.154
247.61	52.143
247.98	44.444
248.36	45.270
248.73	44.586
249.10	43.949
249.47	38.418
249.84	42.246
250.22	42.781
250.59	41.420
250.96	40.404
251.33	38.863
251.70	40.594
252.08	36.190
252.45	40.807
252.82	36.522
253.19	34.468
253.56	39.608
253.94	38.589
254.31	35.937
254.68	41.538
255.05	35.424
255.42	33.333
255.79	33.456
256.16	30.686
256.54	30.035
256.91	34.164
257.28	29.137
257.65	34.653
258.02	29.193
258.39	31.230
258.76	28.094
259.14	32.440
259.51	30.395
259.88	29.193
260.25	27.795
260.62	29.191
260.99	30.435
261.36	33.033
261.73	29.513
262.10	27.616
262.47	29.296
262.85	27.298
263.22	25.356
263.59	29.630
263.96	26.648
264.33	30.287
264.70	25.263
265.07	27.877
265.44	28.030
265.81	27.737
266.18	25.377
266.55	23.171
266.92	24.079
267.29	26.157
267.66	23.624
268.03	24.318
268.40	25.234
268.77	26.253
269.14	23.874
269.51	24.831
269.88	27.739
270.25	26.637
270.62	22.247
270.99	28.172
271.36	24.249
271.73	20.561
272.10	22.609
272.47	24.731
272.84	23.810
273.21	25.367
273.58	23.144
273.95	20.335
274.32	22.727
274.69	25.910
275.06	23.228
275.43	23.617
275.80	24.248
276.17	22.403
276.54	23.285
276.91	22.332
277.28	22.070
277.65	23.598
278.02	19.462
278.39	22.852
278.76	22.000
279.13	23.019
279.50	22.719
279.87	21.713
280.23	23.952
280.60	20.116
280.97	22.181
281.34	21.947
281.71	21.636
282.08	21.881
282.45	21.818
282.82	21.314
283.19	18.360
283.56	22.105
283.92	23.350
284.29	21.517
284.66	22.142
285.03	19.892
285.40	19.014
285.77	21.549
286.14	18.998
286.51	22.333
286.87	21.538
287.24	22.313
287.61	19.101
287.98	20.130
288.35	19.810
288.72	20.093
289.08	21.283
289.45	18.287
289.82	20.000
290.19	15.699
290.56	18.989
290.93	18.127
291.29	18.865
291.66	18.437
292.03	18.605
292.40	21.439
292.77	17.899
293.13	18.657
293.50	17.493
293.87	19.259
294.24	15.704
294.60	16.594
294.97	16.279
295.34	17.630
295.71	17.472
296.08	16.239
296.44	15.956
296.81	16.909
297.18	17.209
297.55	14.908
297.91	15.963
298.28	17.938
298.65	16.971
299.02	16.601
299.38	16.600
299.75	16.173
300.12	16.347
300.48	15.750
300.85	16.030
301.22	15.541
301.59	15.278
301.95	15.491
302.32	14.763
302.69	16.010
303.05	15.636
303.42	15.679
303.79	16.308
304.15	13.753
304.52	15.411
304.89	14.866
305.25	14.849
305.62	15.855
305.99	15.348
306.35	14.989
306.72	14.574
307.09	16.093
307.45	17.117
307.82	14.174
308.19	16.115
308.55	14.671
308.92	15.467
309.29	13.728
309.65	14.634
310.02	14.693
310.38	14.839
310.75	14.784
311.12	15.455
311.48	15.883
311.85	15.199
312.22	15.297
312.58	15.177
312.95	16.051
313.31	15.340
313.68	17.048
314.05	17.850
314.41	16.080
314.78	16.918
315.14	16.485
315.51	16.890
315.87	17.921
316.24	17.776
316.61	17.934
316.97	18.591
317.34	16.830
317.70	18.738
318.07	19.442
318.43	19.961
318.80	21.275
319.16	21.281
319.53	19.887
319.89	22.286
320.26	21.500
320.62	23.313
320.99	22.525
321.35	25.152
321.72	24.435
322.08	25.173
322.45	26.468
322.81	26.453
323.18	27.360
323.54	26.994
323.91	26.415
324.27	27.629
324.64	28.518
325.00	28.945
325.37	30.027
325.73	31.239
326.10	30.185
326.46	31.272
326.83	33.909
327.19	33.732
327.56	33.798
327.92	35.171
328.29	34.783
328.65	38.398
329.01	36.101
329.38	37.373
329.74	37.673
330.11	39.020
330.47	39.302
330.84	40.717
331.20	39.253
331.56	41.009
331.93	40.093
332.29	41.437
332.66	41.062
333.02	43.327
333.38	41.554
333.75	43.583
334.11	42.349
334.48	42.236
334.84	44.485
335.20	44.273
335.57	43.608
335.93	41.786
336.29	44.139
336.66	45.266
337.02	43.077
337.38	45.370
337.75	42.870
338.11	43.868
338.47	44.475
338.84	45.646
339.20	45.229
339.56	45.347
339.93	45.091
340.29	44.837
340.65	44.831
341.02	44.590
341.38	47.331
341.74	44.123
342.11	43.581
342.47	45.815
342.83	44.435
343.20	45.628
343.56	44.650
343.92	45.351
344.28	45.493
344.65	44.970
345.01	45.370
345.37	44.854
345.73	46.785
346.10	45.098
346.46	46.610
346.82	45.881
347.19	45.865
347.55	45.320
347.91	45.469
348.27	46.754
348.63	46.237
349.00	45.227
349.36	46.305
349.72	45.229
350.08	44.246
350.45	46.623
350.81	45.573
351.17	46.272
351.53	45.291
351.89	44.637
352.26	46.725
352.62	45.068
352.98	45.786
353.34	46.097
353.70	45.745
354.07	46.129
354.43	45.952
354.79	45.455
355.15	44.134
355.51	46.922
355.87	45.959
356.24	45.684
356.60	45.148
356.96	46.420
357.32	46.688
357.68	46.693
358.04	45.368
358.40	46.635
358.77	46.166
359.13	46.093
359.49	44.549
359.85	44.683
360.21	46.970
360.57	45.292
360.93	46.385
361.29	44.974
361.66	45.279
362.02	45.522
362.38	46.084
362.74	46.503
363.10	45.448
363.46	46.295
363.82	46.410
364.18	44.567
364.54	45.765
364.90	45.538
365.26	45.147
365.62	46.238
365.98	44.996
366.35	44.126
366.71	44.541
367.07	45.229
367.43	46.444
367.79	45.253
368.15	46.624
368.51	45.422
368.87	45.610
369.23	45.062
369.59	45.619
369.95	44.926
370.31	43.519
370.67	43.913
371.03	47.566
371.39	45.845
371.75	45.882
372.11	43.670
372.47	46.334
372.83	46.182
373.19	44.725
373.55	46.046
373.91	45.655
374.27	44.674
374.63	45.673
374.99	44.986
375.35	43.685
375.71	43.934
376.07	45.130
376.42	45.598
376.78	45.262
377.14	44.166
377.50	45.430
377.86	43.949
378.22	44.311
378.58	43.108
378.94	42.866
379.30	43.448
379.66	44.416
380.02	43.796
380.38	42.744
380.74	44.238
381.09	43.276
381.45	44.499
381.81	44.349
382.17	44.331
382.53	43.836
382.89	44.074
383.25	43.652
383.61	46.035
383.97	43.652
384.32	43.107
384.68	43.247
385.04	42.471
385.40	43.220
385.76	44.472
386.12	43.523
386.48	44.179
386.83	43.874
387.19	44.094
387.55	44.527
387.91	42.503
388.27	41.937
388.62	43.454
388.98	42.445
389.34	43.680
389.70	43.286
390.06	43.536
390.42	43.580
390.77	43.257
391.13	44.416
391.49	43.718
391.85	42.266
392.20	42.587
392.56	42.992
392.92	42.790
393.28	42.012
393.64	42.446
393.99	41.173
394.35	42.246
394.71	42.472
395.07	42.305
395.42	42.398
395.78	42.176
396.14	41.527
396.50	42.607
396.85	43.229
397.21	42.109
397.57	40.794
397.92	42.248
398.28	41.648
398.64	40.741
399.00	42.026
399.35	41.512
399.71	41.146
400.07	41.455
400.42	41.656
400.78	42.220
401.14	41.159
401.49	40.657
401.85	42.589
402.21	41.198
402.57	40.777
402.92	41.362
403.28	41.224
403.63	41.089
403.99	41.083
404.35	41.273
404.70	39.808
405.06	39.720
405.42	41.547
405.77	41.429
406.13	40.350
406.49	40.154
406.84	39.634
407.20	39.539
407.55	40.651
407.91	40.867
408.27	38.800
408.62	39.615
408.98	39.645
409.34	40.529
409.69	40.129
410.05	40.582
410.40	40.183
410.76	39.546
411.11	39.385
411.47	39.808
411.83	39.890
412.18	38.528
412.54	39.103
412.89	39.639
413.25	39.433
413.60	39.407
413.96	38.798
414.31	38.943
414.67	39.734
415.03	39.338
415.38	39.626
415.74	39.357
416.09	40.105
416.45	39.558
416.80	39.392
417.16	39.678
417.51	39.615
417.87	38.150
418.22	38.738
418.58	39.897
418.93	38.882
419.29	38.956
419.64	39.043
420.00	38.963
420.35	38.667
420.71	38.852
421.06	37.649
421.42	37.836
421.77	38.004
422.12	36.946
422.48	36.751
422.83	37.973
423.19	37.680
423.54	36.970
423.90	37.623
424.25	35.958
424.61	36.845
424.96	37.784
425.31	36.545
425.67	36.854
426.02	36.571
426.38	37.179
426.73	37.624
427.09	37.751
427.44	36.630
427.79	36.630
428.15	37.679
428.50	37.098
428.85	37.426
429.21	36.389
429.56	35.770
429.92	35.934
430.27	36.445
430.62	35.996
430.98	35.859
431.33	34.845
431.68	36.545
432.04	35.623
432.39	36.436
432.74	36.385
433.10	36.050
433.45	36.327
433.80	35.920
434.16	35.043
434.51	34.632
434.86	35.690
435.22	35.297
435.57	36.049
435.92	35.284
436.28	36.714
436.63	35.265
436.98	34.459
437.34	35.957
437.69	35.181
438.04	35.076
438.39	35.164
438.75	35.096
439.10	35.810
439.45	34.770
439.81	35.710
440.16	34.218
440.51	35.384
440.86	34.916
441.22	35.039
441.57	34.554
441.92	34.391
442.27	34.499
442.63	34.176
442.98	35.211
443.33	33.804
443.68	34.331
444.03	33.480
444.39	33.106
444.74	35.119
445.09	34.016
445.44	33.898
445.79	33.597
446.15	32.980
446.50	33.441
446.85	33.350
447.20	33.758
447.55	33.668
447.91	32.653
448.26	33.166
448.61	32.504
448.96	33.942
449.31	33.521
449.66	33.033
450.02	32.702
450.37	32.313
450.72	32.826
451.07	32.236
451.42	32.401
451.77	32.590
452.12	32.217
452.47	32.152
452.83	32.751
453.18	32.579
453.53	33.395
453.88	32.428
454.23	32.756
454.58	32.344
454.93	32.676
455.28	32.606
455.63	31.068
455.98	33.155
456.34	32.475
456.69	32.749
457.04	31.950
457.39	31.853
457.74	30.412
458.09	32.087
458.44	31.243
458.79	30.260
459.14	31.433
459.49	30.940
459.84	30.859
460.19	30.289
460.54	30.093
460.89	30.773
461.24	30.844
461.59	32.191
461.94	31.073
462.29	31.395
462.64	29.738
462.99	31.425
463.34	31.933
463.69	30.644
464.04	31.536
464.39	30.203
464.74	29.947
465.09	30.036
465.44	29.529
465.79	29.139
466.14	29.721
466.49	29.533
466.84	30.356
467.19	29.934
467.54	31.125
467.89	29.472
468.24	29.785
468.59	30.342
468.94	29.444
469.29	30.334
469.64	30.857
469.99	29.770
470.34	31.638
470.68	29.885
471.03	29.932
471.38	30.299
471.73	29.514
472.08	29.539
472.43	29.209
472.78	29.164
473.13	29.461
473.48	28.402
473.83	29.329
474.17	28.874
474.52	28.226
474.87	29.889
475.22	29.309
475.57	28.318
475.92	28.518
476.27	28.467
476.61	28.296
476.96	27.817
477.31	27.577
477.66	28.392
478.01	27.862
478.36	28.662
478.70	27.207
479.05	27.902
479.40	28.199
479.75	27.809
480.10	28.032
480.45	27.463
480.79	27.377
481.14	27.250
481.49	27.432
481.84	27.618
482.19	27.169
482.53	26.835
482.88	27.315
483.23	27.103
483.58	27.070
483.92	26.617
484.27	26.362
484.62	26.250
484.97	26.803
485.31	26.712
485.66	24.754
486.01	23.968
486.36	23.655
486.70	23.353
487.05	23.793
487.40	25.153
487.75	24.370
488.09	25.387
488.44	25.117
488.79	26.148
489.13	25.974
489.48	26.142
489.83	25.809
490.17	26.830
490.52	25.465
490.87	26.232
491.22	26.148
491.56	25.330
491.91	25.454
492.26	26.412
492.60	26.452
492.95	25.164
493.30	25.748
493.64	26.178
493.99	26.695
494.34	26.133
494.68	26.511
495.03	26.692
495.37	25.593
495.72	26.121
496.07	26.450
496.41	25.044
496.76	26.121
497.11	24.764
497.45	25.710
497.80	25.480
498.14	24.831
498.49	26.049
498.84	25.407
499.18	25.333
499.53	25.261
499.87	24.418
500.22	24.211
500.56	25.971
500.91	24.712
501.26	25.130
501.60	25.154
501.95	24.748
502.29	25.398
502.64	24.721
502.98	24.638
503.33	25.229
503.67	24.455
504.02	25.351
504.36	24.286
504.71	25.354
505.06	24.530
505.40	24.842
505.75	24.831
506.09	24.198
506.44	24.914
506.78	24.842
507.13	25.492
507.47	24.747
507.82	24.417
508.16	24.721
508.51	25.520
508.85	24.528
509.19	24.031
509.54	24.592
509.88	24.936
510.23	24.473
510.57	25.181
510.92	25.272
511.26	24.358
511.61	24.429
511.95	24.374
512.30	24.178
512.64	24.557
512.98	25.027
513.33	25.589
513.67	25.133
514.02	23.647
514.36	25.123
514.70	24.903
515.05	24.428
515.39	24.902
515.74	25.000
516.08	25.824
516.42	24.750
516.77	24.415
517.11	24.473
517.46	24.831
517.80	25.261
518.14	24.378
518.49	24.796
518.83	24.318
519.17	25.462
519.52	24.392
519.86	24.415
520.20	24.740
520.55	25.015
520.89	25.852
521.23	24.548
521.58	24.370
521.92	24.985
522.26	25.625
522.61	24.112
522.95	24.248
523.29	25.198
523.64	25.305
523.98	25.385
524.32	25.030
524.66	24.714
525.01	25.245
525.35	25.093
525.69	23.830
526.04	25.421
526.38	25.076
526.72	24.417
527.06	25.047
527.41	23.082
527.75	25.595
528.09	25.305
528.43	25.239
528.78	25.138
529.12	24.970
529.46	24.189
529.80	24.567
530.15	25.296
530.49	23.569
530.83	25.190
531.17	24.608
531.51	26.265
531.86	24.323
532.20	24.837
532.54	24.536
532.88	25.160
533.22	24.610
533.57	24.074
533.91	24.262
534.25	24.423
534.59	24.344
534.93	23.974
535.27	24.321
535.62	23.443
535.96	24.419
536.30	23.204
536.64	23.954
536.98	24.552
537.32	23.963
537.66	25.067
538.01	24.621
538.35	24.370
538.69	25.335
539.03	23.522
539.37	23.259
539.71	23.331
540.05	24.248
540.39	23.987
540.73	23.480
541.07	25.049
541.42	24.462
541.76	24.129
542.10	25.162
542.44	23.709
542.78	25.033
543.12	23.608
543.46	24.787
543.80	23.552
544.14	23.427
544.48	24.698
544.82	23.348
545.16	24.789
545.50	23.201
545.84	24.597
546.18	24.444
546.52	22.849
546.86	24.261
547.20	25.759
547.54	24.449
547.88	24.681
548.22	23.910
548.56	23.711
548.90	23.688
549.24	23.569
549.58	24.557
549.92	24.382
550.26	25.426
550.60	23.029
550.94	23.310
551.28	22.970
551.62	24.659
551.96	24.140
552.30	25.324
552.64	24.408
552.98	24.610
553.32	23.803
553.66	24.676
554.00	24.640
554.34	24.707
554.68	24.678
555.02	24.189
555.36	23.660
555.69	24.290
556.03	24.697
556.37	25.307
556.71	23.943
557.05	23.880
557.39	24.493
557.73	24.629
558.07	25.091
558.41	24.457
558.75	25.202
559.08	25.354
559.42	24.641
559.76	25.221
560.10	24.483
560.44	23.131
560.78	24.884
561.12	23.021
561.45	24.250
561.79	23.665
562.13	23.810
562.47	24.180
562.81	24.407
563.15	23.278
563.48	23.740
563.82	23.288
564.16	23.806
564.50	23.568
564.84	23.515
565.17	23.810
565.51	24.153
565.85	23.414
566.19	23.043
566.52	25.206
566.86	23.146
567.20	23.526
567.54	23.744
567.88	22.433
568.21	22.804
568.55	22.144
568.89	22.179
569.23	22.103
569.56	21.417
569.90	21.170
570.24	21.206
570.57	20.367
570.91	20.427
571.25	20.506
571.59	20.324
571.92	20.507
572.26	20.306
572.60	20.270
572.93	19.850
573.27	20.319
573.61	20.408
573.95	20.439
574.28	20.377
574.62	19.096
574.96	19.355
575.29	19.884
575.63	19.538
575.97	19.917
576.30	19.809
576.64	19.232
576.98	19.154
577.31	19.316
577.65	19.088
577.98	18.878
578.32	18.566
578.66	18.889
578.99	19.197
579.33	19.124
579.67	19.265
580.00	19.348
580.34	19.388
580.67	19.357
581.01	19.361
581.35	19.288
581.68	19.156
582.02	18.734
582.35	18.987
582.69	18.818
583.02	19.042
583.36	19.507
583.70	19.955
584.03	19.854
584.37	20.000
584.70	19.227
585.04	19.325
585.37	19.501
585.71	19.314
586.04	19.328
586.38	19.540
586.72	19.718
587.05	19.125
587.39	19.551
587.72	19.299
588.06	19.237
588.39	19.616
588.73	19.390
589.06	19.632
589.40	20.168
589.73	19.958
590.07	20.285
590.40	20.387
590.73	20.765
591.07	20.798
591.40	21.130
591.74	20.693
592.07	20.986
592.41	20.711
592.74	20.225
593.08	19.787
593.41	19.930
593.75	19.207
594.08	19.712
594.41	19.371
594.75	20.074
595.08	19.435
595.42	19.720
595.75	19.694
596.09	20.879
596.42	20.472
596.75	19.544
597.09	20.996
597.42	19.983
597.75	20.095
598.09	20.348
598.42	20.490
598.76	19.862
599.09	19.270
599.42	19.360
599.76	19.985
600.09	19.308
600.42	19.759
600.76	19.071
601.09	19.818
601.42	19.825
601.76	19.772
602.09	19.723
602.42	20.183
602.76	20.516
603.09	19.945
603.42	19.641
603.76	19.474
604.09	19.116
604.42	19.853
604.76	20.877
605.09	20.052
605.42	19.367
605.75	19.868
606.09	19.439
606.42	19.371
606.75	19.577
607.09	20.385
607.42	19.726
607.75	19.156
608.08	20.061
608.42	20.215
608.75	19.161
609.08	19.658
609.41	20.181
609.75	19.914
610.08	20.217
610.41	19.879
610.74	20.482
611.07	19.960
611.41	20.461
611.74	21.418
612.07	21.325
612.40	21.039
612.73	20.368
613.07	21.067
613.40	20.484
613.73	19.822
614.06	19.892
614.39	20.399
614.72	20.632
615.06	20.641
615.39	20.488
615.72	20.041
616.05	20.680
616.38	20.067
616.71	20.606
617.05	21.790
617.38	19.844
617.71	21.141
618.04	21.214
618.37	20.225
618.70	20.784
619.03	22.566
619.36	22.200
619.69	21.479
620.03	22.321
620.36	21.858
620.69	22.055
621.02	22.566
621.35	22.944
621.68	21.963
622.01	20.975
622.34	23.374
622.67	21.293
623.00	21.497
623.33	21.444
623.66	21.587
623.99	22.459
624.32	20.827
624.65	21.328
624.99	20.680
625.32	20.999
625.65	22.239
625.98	23.367
626.31	22.240
626.64	22.531
626.97	21.862
627.30	21.031
627.63	22.888
627.96	23.802
628.29	22.922
628.62	23.147
628.95	24.717
629.28	23.723
629.61	24.106
629.94	23.429
630.26	22.402
630.59	23.260
630.92	22.510
