SpectraSuite Data File
++++++++++++++++++++++++++++++++++++
Date: Wed May 13 19:40:40 PDT 2015
User: schluterlab
Dark Spectrum Present: Yes
Reference Spectrum Present: Yes
Number of Sampled Component Spectra: 1
Spectrometers: USB2E3373
Integration Time (usec): 3000 (USB2E3373)
Spectra Averaged: 3 (USB2E3373)
Boxcar Smoothing: 0 (USB2E3373)
Correct for Electrical Dark: No (USB2E3373)
Strobe/Lamp Enabled: No (USB2E3373)
Correct for Detector Non-linearity: No (USB2E3373)
Correct for Stray Light: No (USB2E3373)
Number of Pixels in Processed Spectrum: 2048
>>>>>Begin Processed Spectral Data<<<<<
178.53	0.000
178.91	-1300.000
179.29	-1400.000
179.67	-211.111
180.04	-1200.000
180.42	2850.000
180.80	1140.000
181.18	-1175.000
181.56	714.286
181.94	0.000
182.31	-657.143
182.69	1766.667
183.07	-500.000
183.45	-466.667
183.83	572.727
184.20	-390.000
184.58	2250.000
184.96	6600.000
185.34	-900.000
185.72	-650.000
186.09	-1950.000
186.47	2550.000
186.85	2800.000
187.23	5100.000
187.61	-1833.333
187.98	1450.000
188.36	609.091
188.74	545.455
189.12	-1060.000
189.49	720.000
189.87	-5300.000
190.25	-1050.000
190.63	442.857
191.00	384.615
191.38	766.667
191.76	-1375.000
192.14	1575.000
192.51	625.000
192.89	1016.667
193.27	512.500
193.65	-950.000
194.02	650.000
194.40	1040.000
194.78	570.000
195.15	533.333
195.53	700.000
195.91	-2150.000
196.29	393.750
196.66	373.684
197.04	-410.000
197.42	0.000
197.79	590.000
198.17	-5700.000
198.55	685.714
198.92	700.000
199.30	1060.000
199.68	0.000
200.05	344.444
200.43	785.714
200.81	5100.000
201.18	1900.000
201.56	-1466.667
201.94	611.111
202.31	566.667
202.69	433.333
203.07	540.000
203.44	0.000
203.82	1225.000
204.19	785.714
204.57	407.143
204.95	637.500
205.32	1900.000
205.70	554.545
206.08	371.429
206.45	2500.000
206.83	393.750
207.20	933.333
207.58	800.000
207.96	333.333
208.33	750.000
208.71	-966.667
209.08	728.571
209.46	666.667
209.84	590.909
210.21	-1333.333
210.59	1375.000
210.96	-500.000
211.34	2700.000
211.71	610.000
212.09	850.000
212.46	0.000
212.84	1700.000
213.22	1300.000
213.59	-5000.000
213.97	1000.000
214.34	814.286
214.72	581.818
215.09	880.000
215.47	-2400.000
215.84	-2750.000
216.22	1833.333
216.59	414.286
216.97	1725.000
217.34	472.727
217.72	-783.333
218.09	0.000
218.47	-4200.000
218.84	666.667
219.22	828.571
219.59	1500.000
219.97	-571.429
220.34	980.000
220.72	-2000.000
221.09	435.714
221.47	1525.000
221.84	-900.000
222.22	0.000
222.59	1650.000
222.97	-2950.000
223.34	1000.000
223.72	453.846
224.09	1040.000
224.46	2500.000
224.84	-6900.000
225.21	-980.000
225.59	-5700.000
225.96	610.000
226.34	340.000
226.71	2900.000
227.08	725.000
227.46	640.000
227.83	-1050.000
228.21	-2650.000
228.58	633.333
228.95	-2950.000
229.33	-2150.000
229.70	1933.333
230.08	842.857
230.45	-1180.000
230.82	441.667
231.20	883.333
231.57	828.571
231.95	500.000
232.32	254.545
232.69	436.364
233.07	814.286
233.44	415.385
233.81	-1966.667
234.19	294.737
234.56	466.667
234.93	466.667
235.31	481.818
235.68	369.231
236.05	371.429
236.43	196.970
236.80	268.421
237.17	4100.000
237.55	300.000
237.92	200.000
238.29	295.238
238.67	190.323
239.04	224.138
239.41	169.444
239.79	113.043
240.16	161.905
240.53	136.364
240.91	119.608
241.28	118.000
241.65	102.000
242.02	120.290
242.40	100.000
242.77	120.000
243.14	78.495
243.51	108.989
243.89	88.235
244.26	76.667
244.63	81.720
245.00	76.596
245.38	84.158
245.75	62.617
246.12	70.642
246.49	73.723
246.87	80.000
247.24	69.231
247.61	70.714
247.98	62.092
248.36	55.405
248.73	60.510
249.10	65.605
249.47	55.932
249.84	57.754
250.22	55.615
250.59	60.947
250.96	57.576
251.33	54.502
251.70	56.436
252.08	52.381
252.45	46.188
252.82	45.217
253.19	50.213
253.56	44.706
253.94	49.793
254.31	49.219
254.68	47.308
255.05	49.446
255.42	47.154
255.79	44.485
256.16	46.570
256.54	45.936
256.91	49.466
257.28	47.842
257.65	45.545
258.02	46.584
258.39	43.533
258.76	45.151
259.14	41.667
259.51	42.553
259.88	40.373
260.25	41.390
260.62	41.908
260.99	41.925
261.36	41.742
261.73	41.261
262.10	42.733
262.47	42.254
262.85	40.669
263.22	36.182
263.59	40.741
263.96	39.011
264.33	38.903
264.70	40.526
265.07	43.223
265.44	38.384
265.81	36.010
266.18	37.688
266.55	39.512
266.92	37.838
267.29	38.657
267.66	38.303
268.03	39.318
268.40	38.785
268.77	38.663
269.14	35.586
269.51	36.117
269.88	38.462
270.25	37.923
270.62	36.404
270.99	40.430
271.36	37.983
271.73	39.953
272.10	35.870
272.47	38.065
272.84	39.394
273.21	37.736
273.58	35.153
273.95	32.285
274.32	35.744
274.69	38.758
275.06	35.433
275.43	34.468
275.80	35.271
276.17	36.864
276.54	36.175
276.91	36.364
277.28	33.594
277.65	37.331
278.02	36.232
278.39	35.937
278.76	36.182
279.13	36.792
279.50	35.940
279.87	33.466
280.23	37.325
280.60	32.302
280.97	32.532
281.34	34.690
281.71	35.455
282.08	34.741
282.45	33.273
282.82	32.682
283.19	32.799
283.56	33.333
283.92	33.841
284.29	34.215
284.66	33.212
285.03	29.837
285.40	31.162
285.77	35.185
286.14	33.851
286.51	31.667
286.87	33.162
287.24	33.225
287.61	33.226
287.98	31.494
288.35	31.062
288.72	30.062
289.08	29.734
289.45	31.466
289.82	30.569
290.19	27.786
290.56	30.015
290.93	29.607
291.29	31.902
291.66	27.876
292.03	31.250
292.40	29.809
292.77	26.479
293.13	29.701
293.50	29.592
293.87	27.259
294.24	25.630
294.60	27.802
294.97	25.872
295.34	28.773
295.71	25.994
296.08	27.066
296.44	25.309
296.81	27.213
297.18	25.474
297.55	24.274
297.91	25.989
298.28	26.506
298.65	24.804
299.02	25.823
299.38	25.764
299.75	24.798
300.12	26.437
300.48	25.375
300.85	24.661
301.22	24.586
301.59	23.990
301.95	24.685
302.32	25.931
302.69	24.134
303.05	23.636
303.42	23.086
303.79	23.216
304.15	22.145
304.52	22.480
304.89	22.067
305.25	23.202
305.62	22.197
305.99	23.022
306.35	22.260
306.72	22.534
307.09	23.418
307.45	24.212
307.82	20.871
308.19	23.179
308.55	23.840
308.92	23.631
309.29	21.119
309.65	21.739
310.02	23.150
310.38	22.581
310.75	23.020
311.12	21.392
311.48	22.362
311.85	23.061
312.22	23.621
312.58	22.141
312.95	22.492
313.31	22.233
313.68	23.389
314.05	23.077
314.41	24.322
314.78	23.666
315.14	21.748
315.51	24.305
315.87	23.366
316.24	23.138
316.61	23.977
316.97	22.309
317.34	22.309
317.70	23.423
318.07	23.773
318.43	24.364
318.80	24.930
319.16	26.460
319.53	25.047
319.89	24.286
320.26	25.300
320.62	25.794
320.99	23.737
321.35	26.465
321.72	27.926
322.08	27.641
322.45	27.264
322.81	26.260
323.18	28.516
323.54	25.325
323.91	28.208
324.27	26.960
324.64	27.586
325.00	25.518
325.37	27.207
325.73	28.097
326.10	29.568
326.46	26.971
326.83	29.681
327.19	29.206
327.56	28.397
327.92	29.309
328.29	29.636
328.65	30.479
329.01	29.422
329.38	30.620
329.74	30.286
330.11	31.762
330.47	30.579
330.84	31.250
331.20	30.783
331.56	30.000
331.93	30.370
332.29	30.967
332.66	31.770
333.02	30.804
333.38	31.888
333.75	31.016
334.11	30.071
334.48	30.878
334.84	31.710
335.20	31.727
335.57	30.553
335.93	30.714
336.29	30.495
336.66	31.740
337.02	30.136
337.38	31.019
337.75	30.660
338.11	31.603
338.47	30.755
338.84	31.439
339.20	30.550
339.56	31.113
339.93	31.636
340.29	31.522
340.65	31.640
341.02	32.199
341.38	31.584
341.74	30.263
342.11	32.052
342.47	32.599
342.83	31.164
343.20	31.775
343.56	29.907
343.92	31.930
344.28	31.037
344.65	32.244
345.01	30.892
345.37	30.617
345.73	31.726
346.10	31.287
346.46	32.034
346.82	30.890
347.19	30.744
347.55	31.117
347.91	31.230
348.27	31.717
348.63	31.438
349.00	31.392
349.36	31.281
349.72	31.596
350.08	30.713
350.45	31.570
350.81	31.357
351.17	30.956
351.53	30.958
351.89	29.043
352.26	30.860
352.62	31.756
352.98	30.470
353.34	32.375
353.70	31.015
354.07	30.806
354.43	31.825
354.79	31.134
355.15	30.567
355.51	31.974
355.87	32.000
356.24	32.573
356.60	30.313
356.96	31.617
357.32	30.744
357.68	30.866
358.04	31.275
358.40	31.750
358.77	30.751
359.13	30.624
359.49	30.980
359.85	30.714
360.21	31.180
360.57	31.595
360.93	31.462
361.29	30.234
361.66	30.960
362.02	30.672
362.38	30.951
362.74	31.622
363.10	30.052
363.46	30.814
363.82	31.141
364.18	30.543
364.54	31.278
364.90	30.949
365.26	30.441
365.62	31.264
365.98	31.045
366.35	30.014
366.71	31.453
367.07	31.027
367.43	31.422
367.79	31.620
368.15	31.537
368.51	30.887
368.87	29.907
369.23	31.163
369.59	31.499
369.95	30.000
370.31	31.125
370.67	30.072
371.03	31.985
371.39	29.810
371.75	31.176
372.11	29.801
372.47	32.258
372.83	31.196
373.19	29.552
373.55	31.042
373.91	31.075
374.27	31.065
374.63	31.273
374.99	30.720
375.35	30.426
375.71	30.706
376.07	31.619
376.42	30.536
376.78	30.351
377.14	30.461
377.50	31.589
377.86	29.322
378.22	30.847
378.58	29.825
378.94	30.170
379.30	30.407
379.66	30.901
380.02	30.221
380.38	30.115
380.74	30.312
381.09	30.196
381.45	31.039
381.81	30.528
382.17	30.255
382.53	29.371
382.89	29.877
383.25	30.144
383.61	31.041
383.97	30.519
384.32	30.069
384.68	30.483
385.04	29.871
385.40	30.155
385.76	30.283
386.12	31.218
386.48	30.208
386.83	31.495
387.19	31.293
387.55	30.427
387.91	30.895
388.27	29.982
388.62	30.854
388.98	29.791
389.34	30.538
389.70	28.755
390.06	30.735
390.42	30.674
390.77	30.598
391.13	30.568
391.49	30.393
391.85	29.726
392.20	30.032
392.56	30.619
392.92	29.841
393.28	29.349
393.64	29.376
393.99	29.627
394.35	29.529
394.71	30.301
395.07	29.346
395.42	30.346
395.78	30.534
396.14	30.540
396.50	30.326
396.85	30.579
397.21	29.223
397.57	29.386
397.92	30.950
398.28	29.260
398.64	29.391
399.00	29.211
399.35	28.708
399.71	28.762
400.07	29.687
400.42	29.325
400.78	29.312
401.14	29.207
401.49	29.134
401.85	28.312
402.21	28.144
402.57	29.118
402.92	28.878
403.28	29.919
403.63	28.465
403.99	28.344
404.35	29.879
404.70	28.897
405.06	28.946
405.42	29.570
405.77	28.057
406.13	28.668
406.49	28.386
406.84	28.116
407.20	28.428
407.55	27.505
407.91	29.200
408.27	28.015
408.62	28.417
408.98	27.757
409.34	28.659
409.69	28.710
410.05	28.005
410.40	28.135
410.76	27.718
411.11	28.287
411.47	27.732
411.83	27.978
412.18	27.706
412.54	29.016
412.89	27.831
413.25	27.804
413.60	28.721
413.96	27.140
414.31	27.582
414.67	27.693
415.03	28.344
415.38	28.415
415.74	27.717
416.09	28.805
416.45	27.577
416.80	27.297
417.16	28.954
417.51	27.936
417.87	27.232
418.22	28.139
418.58	28.276
418.93	27.518
419.29	27.689
419.64	27.015
420.00	27.256
420.35	27.536
420.71	27.555
421.06	26.850
421.42	27.368
421.77	27.242
422.12	26.558
422.48	25.688
422.83	25.684
423.19	26.133
423.54	26.698
423.90	26.493
424.25	26.801
424.61	26.786
424.96	26.706
425.31	26.523
425.67	25.955
426.02	26.857
426.38	26.984
426.73	26.565
427.09	26.444
427.44	25.532
427.79	26.337
428.15	26.845
428.50	25.629
428.85	26.162
429.21	26.284
429.56	25.039
429.92	25.868
430.27	25.174
430.62	25.499
430.98	25.480
431.33	25.361
431.68	26.073
432.04	25.559
432.39	25.871
432.74	25.613
433.10	26.372
433.45	26.647
433.80	25.000
434.16	25.534
434.51	25.368
434.86	25.485
435.22	25.403
435.57	25.957
435.92	24.985
436.28	25.445
436.63	26.159
436.98	25.301
437.34	25.880
437.69	26.604
438.04	24.902
438.39	25.493
438.75	25.741
439.10	24.860
439.45	25.207
439.81	24.894
440.16	24.958
440.51	25.366
440.86	24.783
441.22	24.583
441.57	25.000
441.92	25.026
442.27	25.619
442.63	24.487
442.98	25.014
443.33	25.272
443.68	24.626
444.03	23.914
444.39	24.051
444.74	25.487
445.09	24.367
445.44	24.604
445.79	24.988
446.15	24.510
446.50	24.179
446.85	24.306
447.20	24.732
447.55	24.846
447.91	23.773
448.26	24.430
448.61	24.138
448.96	24.363
449.31	24.859
449.66	23.860
450.02	23.510
450.37	24.546
450.72	24.083
451.07	24.680
451.42	24.195
451.77	23.958
452.12	24.307
452.47	25.062
452.83	24.825
453.18	24.267
453.53	24.675
453.88	23.331
454.23	23.610
454.58	24.652
454.93	24.730
455.28	23.566
455.63	24.515
455.98	24.643
456.34	24.246
456.69	24.233
457.04	24.458
457.39	23.963
457.74	23.680
458.09	24.094
458.44	23.888
458.79	23.807
459.14	24.097
459.49	23.818
459.84	23.490
460.19	22.805
460.54	23.495
460.89	24.026
461.24	24.165
461.59	24.753
461.94	23.859
462.29	23.976
462.64	24.123
462.99	23.357
463.34	24.800
463.69	23.139
464.04	23.768
464.39	23.246
464.74	23.411
465.09	23.703
465.44	22.438
465.79	22.260
466.14	22.496
466.49	23.081
466.84	23.643
467.19	23.899
467.54	23.312
467.89	23.709
468.24	22.978
468.59	23.626
468.94	23.213
469.29	23.907
469.64	23.963
469.99	23.072
470.34	23.250
470.68	23.635
471.03	23.129
471.38	24.322
471.73	23.718
472.08	23.947
472.43	23.367
472.78	22.646
473.13	23.107
473.48	23.783
473.83	22.317
474.17	23.335
474.52	22.767
474.87	24.110
475.22	22.693
475.57	22.192
475.92	22.623
476.27	22.830
476.61	22.725
476.96	22.540
477.31	22.030
477.66	22.046
478.01	22.216
478.36	22.422
478.70	22.482
479.05	22.843
479.40	21.443
479.75	22.166
480.10	22.266
480.45	21.656
480.79	21.166
481.14	22.309
481.49	22.639
481.84	21.216
482.19	22.217
482.53	21.651
482.88	21.638
483.23	22.196
483.58	22.338
483.92	22.493
484.27	20.871
484.62	21.724
484.97	21.206
485.31	21.199
485.66	19.912
486.01	19.234
486.36	18.273
486.70	18.631
487.05	19.373
487.40	19.918
487.75	19.414
488.09	20.140
488.44	19.947
488.79	21.230
489.13	21.085
489.48	21.289
489.83	20.673
490.17	22.096
490.52	20.859
490.87	21.574
491.22	21.601
491.56	20.911
491.91	21.126
492.26	21.038
492.60	20.876
492.95	20.486
493.30	21.308
493.64	21.325
493.99	20.706
494.34	21.415
494.68	21.154
495.03	21.898
495.37	20.847
495.72	21.150
496.07	21.253
496.41	20.310
496.76	21.460
497.11	20.937
497.45	20.401
497.80	20.585
498.14	20.918
498.49	21.122
498.84	20.901
499.18	20.571
499.53	20.988
499.87	21.715
500.22	21.338
500.56	21.650
500.91	20.962
501.26	20.578
501.60	21.452
501.95	20.898
502.29	21.321
502.64	20.624
502.98	21.365
503.33	20.567
503.67	20.557
504.02	20.206
504.36	20.590
504.71	20.616
505.06	20.723
505.40	20.710
505.75	21.167
506.09	20.991
506.44	20.918
506.78	21.578
507.13	20.697
507.47	21.263
507.82	21.429
508.16	20.719
508.51	21.867
508.85	20.854
509.19	21.276
509.54	21.020
509.88	20.866
510.23	20.360
510.57	22.188
510.92	20.818
511.26	20.709
511.61	21.214
511.95	20.511
512.30	20.148
512.64	20.419
512.98	21.543
513.33	21.467
513.67	20.971
514.02	20.184
514.36	21.409
514.70	21.029
515.05	20.915
515.39	20.752
515.74	21.847
516.08	22.191
516.42	21.421
516.77	21.683
517.11	21.421
517.46	21.614
517.80	21.777
518.14	21.772
518.49	21.762
518.83	22.216
519.17	21.363
519.52	21.279
519.86	21.392
520.20	22.139
520.55	22.561
520.89	22.080
521.23	22.075
521.58	21.489
521.92	22.352
522.26	21.354
522.61	21.994
522.95	21.363
523.29	22.155
523.64	21.463
523.98	21.811
524.32	21.954
524.66	21.888
525.01	21.630
525.35	22.739
525.69	22.291
526.04	21.433
526.38	21.965
526.72	21.718
527.06	21.908
527.41	20.421
527.75	22.186
528.09	22.030
528.43	22.052
528.78	21.512
529.12	21.576
529.46	22.596
529.80	21.658
530.15	21.745
530.49	21.354
530.83	21.772
531.17	22.389
531.51	22.827
531.86	21.355
532.20	22.686
532.54	22.165
532.88	22.465
533.22	21.487
533.57	21.852
533.91	21.132
534.25	21.628
534.59	20.988
534.93	21.475
535.27	20.821
535.62	21.856
535.96	21.532
536.30	21.170
536.64	22.086
536.98	21.831
537.32	21.725
537.66	22.133
538.01	22.449
538.35	22.043
538.69	22.655
539.03	21.767
539.37	20.895
539.71	21.063
540.05	20.588
540.39	21.196
540.73	21.539
541.07	23.232
541.42	22.048
541.76	21.742
542.10	22.510
542.44	22.185
542.78	22.661
543.12	21.689
543.46	21.902
543.80	21.731
544.14	21.181
544.48	21.143
544.82	20.398
545.16	21.080
545.50	20.758
545.84	21.438
546.18	21.751
546.52	21.817
546.86	21.856
547.20	21.848
547.54	22.311
547.88	21.875
548.22	21.420
548.56	21.509
548.90	20.679
549.24	21.010
549.58	21.965
549.92	21.360
550.26	21.165
550.60	21.577
550.94	21.831
551.28	20.629
551.62	20.705
551.96	21.193
552.30	22.321
552.64	22.110
552.98	21.898
553.32	21.241
553.66	22.359
554.00	22.032
554.34	21.394
554.68	21.459
555.02	21.439
555.36	21.086
555.69	20.433
556.03	20.929
556.37	21.351
556.71	20.941
557.05	20.308
557.39	22.323
557.73	21.101
558.07	22.045
558.41	21.129
558.75	21.896
559.08	20.805
559.42	22.222
559.76	22.132
560.10	22.127
560.44	20.755
560.78	21.291
561.12	20.712
561.45	22.034
561.79	21.292
562.13	21.261
562.47	21.790
562.81	21.409
563.15	20.602
563.48	21.618
563.82	21.331
564.16	20.929
564.50	21.289
564.84	19.848
565.17	21.171
565.51	20.383
565.85	21.256
566.19	20.413
566.52	21.596
566.86	19.771
567.20	20.873
567.54	20.548
567.88	19.826
568.21	20.635
568.55	20.374
568.89	19.553
569.23	18.984
569.56	19.028
569.90	18.566
570.24	18.802
570.57	18.463
570.91	18.649
571.25	17.789
571.59	17.909
571.92	18.145
572.26	18.053
572.60	18.018
572.93	18.111
573.27	18.308
573.61	17.895
573.95	17.881
574.28	17.462
574.62	17.541
574.96	17.467
575.29	17.726
575.63	17.734
575.97	18.042
576.30	17.950
576.64	17.614
576.98	17.744
577.31	17.930
577.65	17.394
577.98	17.451
578.32	17.156
578.66	17.400
578.99	17.462
579.33	17.284
579.67	16.979
580.00	17.861
580.34	17.228
580.67	17.514
581.01	17.338
581.35	17.181
581.68	17.352
582.02	16.827
582.35	16.799
582.69	17.377
583.02	17.012
583.36	17.593
583.70	17.657
584.03	17.346
584.37	17.628
584.70	17.450
585.04	17.637
585.37	17.358
585.71	17.552
586.04	17.589
586.38	18.548
586.72	17.896
587.05	17.685
587.39	17.942
587.72	18.062
588.06	17.609
588.39	17.915
588.73	17.688
589.06	18.853
589.40	17.980
589.73	18.268
590.07	18.043
590.40	18.268
590.73	19.204
591.07	18.803
591.40	18.768
591.74	18.918
592.07	18.717
592.41	19.016
592.74	18.689
593.08	17.988
593.41	17.906
593.75	17.645
594.08	18.203
594.41	18.310
594.75	18.004
595.08	18.468
595.42	18.144
595.75	18.590
596.09	18.588
596.42	18.978
596.75	18.784
597.09	19.004
597.42	18.592
597.75	18.327
598.09	18.609
598.42	18.943
598.76	18.200
599.09	18.092
599.42	17.795
599.76	18.338
600.09	17.923
600.42	18.188
600.76	18.214
601.09	17.705
601.42	18.455
601.76	18.444
602.09	18.340
602.42	18.591
602.76	18.541
603.09	18.135
603.42	18.469
603.76	17.835
604.09	18.534
604.42	18.386
604.76	18.811
605.09	18.436
605.42	18.940
605.75	18.584
606.09	18.056
606.42	18.063
606.75	18.333
607.09	18.083
607.42	18.742
607.75	18.017
608.08	18.802
608.42	19.005
608.75	19.116
609.08	18.779
609.41	18.705
609.75	18.723
610.08	19.651
610.41	18.529
610.74	18.969
611.07	18.775
611.41	19.136
611.74	19.457
612.07	19.151
612.40	18.940
612.73	18.895
613.07	19.612
613.40	19.431
613.73	18.930
614.06	19.570
614.39	18.668
614.72	19.421
615.06	19.328
615.39	18.100
615.72	18.814
616.05	19.032
616.38	19.066
616.71	19.299
617.05	20.612
617.38	19.002
617.71	19.279
618.04	19.591
618.37	19.397
618.70	20.909
619.03	19.737
619.36	20.434
619.69	19.718
620.03	21.635
620.36	20.187
620.69	20.959
621.02	20.723
621.35	20.047
621.68	20.327
622.01	21.053
622.34	20.272
622.67	21.217
623.00	19.809
623.33	19.728
623.66	21.015
623.99	19.661
624.32	20.685
624.65	19.703
624.99	20.538
625.32	20.637
625.65	21.037
625.98	21.138
626.31	22.084
626.64	22.122
626.97	21.031
627.30	21.613
627.63	20.509
627.96	21.110
628.29	21.522
628.62	22.598
628.95	23.019
629.28	22.263
629.61	22.273
629.94	23.143
630.26	22.402
630.59	22.307
