SpectraSuite Data File
++++++++++++++++++++++++++++++++++++
Date: Wed May 13 19:35:51 PDT 2015
User: schluterlab
Dark Spectrum Present: Yes
Reference Spectrum Present: Yes
Number of Sampled Component Spectra: 1
Spectrometers: USB2E3373
Integration Time (usec): 3000 (USB2E3373)
Spectra Averaged: 3 (USB2E3373)
Boxcar Smoothing: 0 (USB2E3373)
Correct for Electrical Dark: No (USB2E3373)
Strobe/Lamp Enabled: No (USB2E3373)
Correct for Detector Non-linearity: No (USB2E3373)
Correct for Stray Light: No (USB2E3373)
Number of Pixels in Processed Spectrum: 2048
>>>>>Begin Processed Spectral Data<<<<<
178.53	0.000
178.91	-1200.000
179.29	-1250.000
179.67	-266.667
180.04	-1450.000
180.42	2800.000
180.80	1220.000
181.18	-1175.000
181.56	742.857
181.94	0.000
182.31	-742.857
182.69	1600.000
183.07	-637.500
183.45	-555.556
183.83	463.636
184.20	-520.000
184.58	2050.000
184.96	5500.000
185.34	-1040.000
185.72	-800.000
186.09	-2700.000
186.47	2900.000
186.85	2050.000
187.23	5000.000
187.61	-1933.333
187.98	1350.000
188.36	581.818
188.74	518.182
189.12	-1060.000
189.49	620.000
189.87	-5100.000
190.25	-1200.000
190.63	400.000
191.00	484.615
191.38	816.667
191.76	-1525.000
192.14	1425.000
192.51	662.500
192.89	1100.000
193.27	775.000
193.65	-1400.000
194.02	570.000
194.40	1240.000
194.78	590.000
195.15	625.000
195.53	680.000
195.91	-2550.000
196.29	387.500
196.66	373.684
197.04	-420.000
197.42	0.000
197.79	700.000
198.17	-5700.000
198.55	685.714
198.92	825.000
199.30	900.000
199.68	0.000
200.05	350.000
200.43	957.143
200.81	5400.000
201.18	1800.000
201.56	-1900.000
201.94	666.667
202.31	677.778
202.69	433.333
203.07	550.000
203.44	0.000
203.82	1400.000
204.19	828.571
204.57	500.000
204.95	725.000
205.32	1666.667
205.70	590.909
206.08	421.429
206.45	2950.000
206.83	425.000
207.20	1016.667
207.58	1040.000
207.96	383.333
208.33	762.500
208.71	-766.667
209.08	871.429
209.46	688.889
209.84	536.364
210.21	-1700.000
210.59	1525.000
210.96	-437.500
211.34	2750.000
211.71	660.000
212.09	816.667
212.46	0.000
212.84	1966.667
213.22	1575.000
213.59	-5100.000
213.97	933.333
214.34	771.429
214.72	663.636
215.09	1260.000
215.47	-2200.000
215.84	-2550.000
216.22	1766.667
216.59	450.000
216.97	1425.000
217.34	554.545
217.72	-750.000
218.09	0.000
218.47	-5400.000
218.84	755.556
219.22	785.714
219.59	1900.000
219.97	-571.429
220.34	960.000
220.72	-1800.000
221.09	428.571
221.47	1425.000
221.84	-866.667
222.22	0.000
222.59	1375.000
222.97	-2750.000
223.34	1300.000
223.72	384.615
224.09	1100.000
224.46	2400.000
224.84	-5900.000
225.21	-1140.000
225.59	-4100.000
225.96	670.000
226.34	300.000
226.71	2900.000
227.08	737.500
227.46	730.000
227.83	-1450.000
228.21	-2500.000
228.58	644.444
228.95	-2450.000
229.33	-2700.000
229.70	1900.000
230.08	842.857
230.45	-880.000
230.82	483.333
231.20	916.667
231.57	657.143
231.95	450.000
232.32	290.909
232.69	409.091
233.07	657.143
233.44	384.615
233.81	-1600.000
234.19	294.737
234.56	466.667
234.93	450.000
235.31	527.273
235.68	384.615
236.05	385.714
236.43	190.909
236.80	310.526
237.17	4200.000
237.55	261.905
237.92	189.286
238.29	238.095
238.67	167.742
239.04	220.690
239.41	150.000
239.79	102.174
240.16	133.333
240.53	111.364
240.91	117.647
241.28	112.000
241.65	118.000
242.02	92.754
242.40	67.742
242.77	90.000
243.14	76.344
243.51	77.528
243.89	76.471
244.26	55.556
244.63	68.817
245.00	46.809
245.38	60.396
245.75	58.879
246.12	44.954
246.49	51.825
246.87	52.000
247.24	52.308
247.61	37.857
247.98	34.641
248.36	35.135
248.73	32.484
249.10	38.854
249.47	32.203
249.84	37.968
250.22	35.294
250.59	27.811
250.96	33.838
251.33	29.858
251.70	32.673
252.08	27.143
252.45	27.354
252.82	29.130
253.19	28.936
253.56	29.804
253.94	30.290
254.31	24.609
254.68	25.385
255.05	23.985
255.42	25.203
255.79	23.529
256.16	23.466
256.54	19.081
256.91	19.929
257.28	16.547
257.65	21.452
258.02	22.981
258.39	21.451
258.76	17.726
259.14	21.131
259.51	16.413
259.88	17.081
260.25	16.012
260.62	20.231
260.99	15.839
261.36	21.321
261.73	17.479
262.10	15.988
262.47	18.592
262.85	17.270
263.22	16.524
263.59	20.228
263.96	17.308
264.33	16.971
264.70	18.684
265.07	17.647
265.44	17.677
265.81	13.869
266.18	16.080
266.55	15.366
266.92	13.022
267.29	16.667
267.66	14.679
268.03	16.591
268.40	16.355
268.77	12.888
269.14	14.865
269.51	14.673
269.88	16.783
270.25	15.350
270.62	14.831
270.99	14.839
271.36	15.236
271.73	14.720
272.10	14.565
272.47	14.194
272.84	15.368
273.21	14.046
273.58	13.319
273.95	13.208
274.32	13.430
274.69	14.133
275.06	14.764
275.43	13.830
275.80	13.427
276.17	12.016
276.54	14.553
276.91	12.253
277.28	11.914
277.65	14.120
278.02	11.180
278.39	16.602
278.76	12.727
279.13	13.396
279.50	13.222
279.87	11.355
280.23	12.375
280.60	12.379
280.97	11.091
281.34	12.743
281.71	12.727
282.08	12.284
282.45	12.182
282.82	12.611
283.19	10.339
283.56	12.105
283.92	11.337
284.29	13.757
284.66	11.978
285.03	11.031
285.40	10.035
285.77	11.953
286.14	10.881
286.51	12.833
286.87	12.479
287.24	12.052
287.61	11.075
287.98	11.039
288.35	10.935
288.72	13.396
289.08	12.520
289.45	11.038
289.82	13.008
290.19	9.890
290.56	9.648
290.93	8.912
291.29	11.656
291.66	10.324
292.03	12.791
292.40	12.628
292.77	10.651
293.13	10.597
293.50	9.475
293.87	10.667
294.24	9.481
294.60	8.588
294.97	9.593
295.34	11.142
295.71	11.790
296.08	8.547
296.44	10.041
296.81	9.511
297.18	11.111
297.55	7.520
297.91	8.707
298.28	9.103
298.65	10.052
299.02	10.408
299.38	9.163
299.75	6.739
300.12	7.535
300.48	10.000
300.85	10.111
301.22	8.535
301.59	9.091
301.95	8.564
302.32	10.013
302.69	7.646
303.05	8.242
303.42	8.519
303.79	9.173
304.15	8.625
304.52	7.416
304.89	8.246
305.25	8.817
305.62	8.834
305.99	8.973
306.35	8.725
306.72	9.305
307.09	9.656
307.45	9.910
307.82	6.808
308.19	10.155
308.55	8.414
308.92	8.485
309.29	8.237
309.65	8.165
310.02	9.197
310.38	9.355
310.75	9.715
311.12	10.542
311.48	9.718
311.85	9.748
312.22	9.573
312.58	10.187
312.95	10.454
313.31	9.612
313.68	9.356
314.05	12.130
314.41	10.754
314.78	10.373
315.14	12.016
315.51	11.740
315.87	12.574
316.24	11.817
316.61	13.255
316.97	12.231
317.34	13.112
317.70	14.818
318.07	13.859
318.43	14.775
318.80	15.933
319.16	16.102
319.53	16.510
319.89	18.286
320.26	20.000
320.62	20.139
320.99	20.606
321.35	20.606
321.72	22.382
322.08	23.988
322.45	24.478
322.81	25.872
323.18	24.952
323.54	27.087
323.91	28.019
324.27	30.210
324.64	30.196
325.00	30.929
325.37	35.032
325.73	35.817
326.10	35.922
326.46	37.276
326.83	38.827
327.19	40.137
327.56	43.815
327.92	44.269
328.29	45.430
328.65	47.606
329.01	45.758
329.38	48.566
329.74	49.677
330.11	49.387
330.47	51.056
330.84	52.482
331.20	51.913
331.56	54.220
331.93	55.556
332.29	55.457
332.66	55.310
333.02	55.941
333.38	57.453
333.75	55.526
334.11	57.829
334.48	60.426
334.84	59.467
335.20	59.182
335.57	59.112
335.93	58.571
336.29	59.799
336.66	63.661
337.02	60.362
337.38	63.056
337.75	59.715
338.11	61.773
338.47	65.009
338.84	64.711
339.20	63.578
339.56	64.416
339.93	65.909
340.29	65.217
340.65	65.686
341.02	65.794
341.38	64.680
341.74	65.789
342.11	65.677
342.47	66.344
342.83	64.555
343.20	66.667
343.56	66.386
343.92	68.333
344.28	65.816
344.65	68.100
345.01	66.246
345.37	67.581
345.73	68.359
346.10	67.860
346.46	68.390
346.82	68.204
347.19	68.170
347.55	68.473
347.91	69.013
348.27	69.022
348.63	68.896
349.00	69.013
349.36	69.130
349.72	68.164
350.08	68.801
350.45	70.789
350.81	70.349
351.17	70.989
351.53	71.744
351.89	70.875
352.26	70.876
352.62	70.168
352.98	70.908
353.34	72.391
353.70	70.049
354.07	71.855
354.43	71.508
354.79	72.003
355.15	70.471
355.51	72.582
355.87	74.204
356.24	74.267
356.60	71.291
356.96	74.899
357.32	74.244
357.68	72.283
358.04	73.951
358.40	72.209
358.77	73.239
359.13	72.928
359.49	74.039
359.85	73.571
360.21	75.279
360.57	75.175
360.93	75.000
361.29	74.301
361.66	73.839
362.02	74.030
362.38	73.992
362.74	75.893
363.10	74.315
363.46	76.009
363.82	76.720
364.18	75.624
364.54	76.523
364.90	76.275
365.26	77.574
365.62	77.064
365.98	75.310
366.35	75.645
366.71	77.151
367.07	77.932
367.43	77.286
367.79	77.730
368.15	77.443
368.51	75.945
368.87	76.017
369.23	78.274
369.59	78.494
369.95	77.941
370.31	77.137
370.67	77.609
371.03	78.727
371.39	78.644
371.75	77.721
372.11	77.098
372.47	79.985
372.83	80.548
373.19	78.829
373.55	79.675
373.91	82.401
374.27	78.076
374.63	80.145
374.99	78.178
375.35	78.646
375.71	78.204
376.07	79.973
376.42	79.161
376.78	78.794
377.14	79.851
377.50	79.338
377.86	79.322
378.22	78.824
378.58	77.506
378.94	79.635
379.30	80.025
379.66	80.457
380.02	80.528
380.38	78.567
380.74	80.912
381.09	79.462
381.45	80.393
381.81	80.590
382.17	79.618
382.53	81.132
382.89	81.111
383.25	80.675
383.61	80.235
383.97	79.550
384.32	78.977
384.68	79.988
385.04	80.824
385.40	78.947
385.76	80.713
386.12	81.801
386.48	80.239
386.83	80.564
387.19	81.200
387.55	80.334
387.91	79.262
388.27	79.460
388.62	81.868
388.98	80.467
389.34	80.288
389.70	81.790
390.06	80.798
390.42	80.934
390.77	80.280
391.13	81.493
391.49	80.838
391.85	80.968
392.20	79.748
392.56	80.114
392.92	81.636
393.28	80.118
393.64	80.815
393.99	78.864
394.35	80.335
394.71	78.921
395.07	78.318
395.42	80.964
395.78	80.025
396.14	79.764
396.50	80.013
396.85	81.564
397.21	79.593
397.57	80.037
397.92	79.988
398.28	78.868
398.64	79.271
399.00	79.687
399.35	78.567
399.71	77.951
400.07	79.361
400.42	79.448
400.78	79.614
401.14	79.756
401.49	78.328
401.85	79.129
402.21	78.084
402.57	78.408
402.92	78.562
403.28	80.137
403.63	80.136
403.99	80.318
404.35	78.909
404.70	79.137
405.06	78.509
405.42	80.973
405.77	78.343
406.13	76.580
406.49	77.942
406.84	77.082
407.20	77.128
407.55	78.622
407.91	79.667
408.27	80.408
408.62	76.701
408.98	77.819
409.34	78.598
409.69	77.484
410.05	79.120
410.40	78.104
410.76	78.076
411.11	75.633
411.47	76.613
411.83	77.642
412.18	75.448
412.54	77.460
412.89	77.530
413.25	75.620
413.60	76.343
413.96	75.956
414.31	76.792
414.67	77.313
415.03	77.815
415.38	76.289
415.74	76.977
416.09	77.596
416.45	76.640
416.80	77.594
417.16	76.877
417.51	76.045
417.87	75.337
418.22	76.467
418.58	75.533
418.93	77.580
419.29	76.575
419.64	76.448
420.00	75.427
420.35	75.420
420.71	76.689
421.06	73.628
421.42	76.023
421.77	74.720
422.12	74.846
422.48	75.715
422.83	76.820
423.19	74.862
423.54	76.959
423.90	75.304
424.25	75.656
424.61	74.881
424.96	77.551
425.31	75.028
425.67	73.876
426.02	75.143
426.38	76.496
426.73	75.132
427.09	75.866
427.44	75.618
427.79	74.928
428.15	74.881
428.50	74.898
428.85	76.818
429.21	76.588
429.56	75.842
429.92	73.830
430.27	74.131
430.62	73.272
430.98	74.053
431.33	73.660
431.68	75.236
432.04	73.269
432.39	75.157
432.74	73.549
433.10	76.287
433.45	75.335
433.80	75.000
434.16	75.267
434.51	73.632
434.86	74.002
435.22	73.986
435.57	74.772
435.92	73.552
436.28	75.563
436.63	74.779
436.98	75.444
437.34	75.850
437.69	75.963
438.04	75.323
438.39	74.746
438.75	75.712
439.10	74.972
439.45	74.203
439.81	75.106
440.16	74.082
440.51	75.513
440.86	75.159
441.22	74.805
441.57	73.248
441.92	74.667
442.27	75.404
442.63	74.513
442.98	74.873
443.33	74.891
443.68	75.168
444.03	74.231
444.39	74.781
444.74	74.513
445.09	75.256
445.44	73.756
445.79	73.083
446.15	73.213
446.50	73.183
446.85	73.947
447.20	73.279
447.55	74.428
447.91	73.745
448.26	73.233
448.61	73.431
448.96	74.695
449.31	74.803
449.66	74.395
450.02	73.593
450.37	73.129
450.72	75.183
451.07	71.785
451.42	73.009
451.77	74.163
452.12	73.095
452.47	72.886
452.83	74.068
453.18	73.655
453.53	74.706
453.88	73.006
454.23	73.939
454.58	73.773
454.93	75.906
455.28	74.252
455.63	73.422
455.98	76.071
456.34	73.555
456.69	74.577
457.04	74.427
457.39	72.297
457.74	71.213
458.09	71.880
458.44	72.520
458.79	71.963
459.14	71.840
459.49	73.380
459.84	72.244
460.19	71.243
460.54	69.907
460.89	71.421
461.24	72.738
461.59	73.271
461.94	71.208
462.29	72.878
462.64	71.666
462.99	70.592
463.34	71.067
463.69	72.233
464.04	71.420
464.39	69.739
464.74	70.826
465.09	71.653
465.44	70.526
465.79	69.966
466.14	69.130
466.49	70.078
466.84	69.702
467.19	69.825
467.54	70.625
467.89	69.148
468.24	69.750
468.59	70.574
468.94	69.762
469.29	70.116
469.64	71.017
469.99	70.433
470.34	71.598
470.68	72.414
471.03	70.272
471.38	72.828
471.73	69.953
472.08	71.250
472.43	68.844
472.78	70.902
473.13	69.255
473.48	69.788
473.83	68.598
474.17	69.073
474.52	70.037
474.87	70.636
475.22	69.994
475.57	68.404
475.92	68.242
476.27	68.095
476.61	68.726
476.96	67.730
477.31	68.394
477.66	69.420
478.01	66.597
478.36	68.429
478.70	67.497
479.05	67.306
479.40	67.247
479.75	67.717
480.10	67.942
480.45	65.588
480.79	65.313
481.14	67.417
481.49	67.727
481.84	67.444
482.19	67.242
482.53	65.321
482.88	66.496
483.23	66.168
483.58	66.379
483.92	66.682
484.27	65.185
484.62	64.957
484.97	64.959
485.31	65.445
485.66	62.512
486.01	60.833
486.36	58.588
486.70	57.906
487.05	59.382
487.40	61.210
487.75	61.555
488.09	62.602
488.44	63.009
488.79	64.919
489.13	64.400
489.48	64.845
489.83	64.480
490.17	65.103
490.52	63.906
490.87	64.315
491.22	64.484
491.56	63.964
491.91	64.635
492.26	63.206
492.60	63.548
492.95	62.675
493.30	63.972
493.64	64.956
493.99	62.256
494.34	63.321
494.68	63.370
495.03	63.910
495.37	61.936
495.72	63.986
496.07	63.155
496.41	61.681
496.76	62.225
497.11	61.954
497.45	61.714
497.80	62.764
498.14	61.643
498.49	62.878
498.84	61.841
499.18	61.619
499.53	60.969
499.87	61.417
500.22	61.894
500.56	63.835
500.91	61.587
501.26	62.162
501.60	62.126
501.95	60.266
502.29	62.887
502.64	61.546
502.98	60.496
503.33	59.644
503.67	61.439
504.02	60.945
504.36	60.739
504.71	60.381
505.06	61.012
505.40	60.622
505.75	59.932
506.09	60.593
506.44	60.829
506.78	61.227
507.13	61.434
507.47	61.111
507.82	61.905
508.16	60.638
508.51	61.086
508.85	60.874
509.19	60.459
509.54	59.949
509.88	59.299
510.23	60.411
510.57	61.249
510.92	60.642
511.26	59.712
511.61	58.766
511.95	59.603
512.30	60.286
512.64	60.075
512.98	60.182
513.33	60.921
513.67	58.324
514.02	59.091
514.36	60.459
514.70	60.874
515.05	59.453
515.39	60.740
515.74	59.347
516.08	59.754
516.42	60.155
516.77	60.424
517.11	59.101
517.46	59.819
517.80	61.034
518.14	58.599
518.49	60.618
518.83	58.693
519.17	58.776
519.52	59.479
519.86	59.213
520.20	60.347
520.55	59.665
520.89	60.158
521.23	59.650
521.58	59.004
521.92	59.645
522.26	59.121
522.61	59.751
522.95	59.484
523.29	58.125
523.64	59.329
523.98	60.074
524.32	58.926
524.66	59.110
525.01	59.191
525.35	58.116
525.69	58.436
526.04	57.944
526.38	57.596
526.72	57.730
527.06	58.883
527.41	56.250
527.75	60.322
528.09	58.253
528.43	57.744
528.78	57.283
529.12	56.303
529.46	57.012
529.80	56.869
530.15	57.882
530.49	55.877
530.83	56.582
531.17	58.290
531.51	59.014
531.86	56.516
532.20	57.366
532.54	56.887
532.88	56.675
533.22	55.215
533.57	55.617
533.91	54.907
534.25	54.800
534.59	55.522
534.93	55.205
535.27	54.979
535.62	55.617
535.96	55.493
536.30	55.880
536.64	54.797
536.98	55.939
537.32	55.234
537.66	55.267
538.01	56.880
538.35	53.135
538.69	54.308
539.03	53.541
539.37	54.313
539.71	53.467
540.05	54.314
540.39	55.282
540.73	53.428
541.07	54.315
541.42	54.403
541.76	55.032
542.10	52.523
542.44	54.172
542.78	53.887
543.12	51.695
543.46	54.754
543.80	53.286
544.14	53.466
544.48	53.587
544.82	51.700
545.16	52.960
545.50	52.956
545.84	54.637
546.18	52.727
546.52	54.233
546.86	54.433
547.20	54.754
547.54	52.371
547.88	52.806
548.22	51.557
548.56	52.013
548.90	51.408
549.24	52.323
549.58	52.046
549.92	53.709
550.26	54.332
550.60	52.075
550.94	51.549
551.28	52.597
551.62	52.552
551.96	52.140
552.30	52.355
552.64	51.724
552.98	52.000
553.32	51.787
553.66	51.738
554.00	51.338
554.34	50.587
554.68	52.575
555.02	51.340
555.36	50.870
555.69	49.594
556.03	51.615
556.37	50.409
556.71	51.091
557.05	50.140
557.39	50.945
557.73	49.965
558.07	52.937
558.41	51.447
558.75	51.653
559.08	52.498
559.42	52.683
559.76	49.559
560.10	49.536
560.44	50.314
560.78	50.033
561.12	49.736
561.45	49.544
561.79	49.967
562.13	48.826
562.47	50.205
562.81	49.024
563.15	49.365
563.48	48.939
563.82	48.663
564.16	48.594
564.50	48.568
564.84	48.167
565.17	48.198
565.51	48.882
565.85	46.954
566.19	46.650
566.52	49.272
566.86	48.282
567.20	47.642
567.54	47.831
567.88	45.899
568.21	45.661
568.55	45.652
568.89	45.233
569.23	43.895
569.56	43.482
569.90	43.132
570.24	42.519
570.57	42.061
570.91	41.306
571.25	41.322
571.59	40.619
571.92	41.273
572.26	40.757
572.60	41.502
572.93	40.930
573.27	41.319
573.61	40.536
573.95	40.594
574.28	39.673
574.62	39.480
574.96	39.307
575.29	39.428
575.63	39.456
575.97	40.146
576.30	39.644
576.64	40.308
576.98	39.426
577.31	39.117
577.65	40.087
577.98	38.380
578.32	37.927
578.66	38.386
578.99	39.101
579.33	38.635
579.67	38.701
580.00	38.864
580.34	39.511
580.67	38.832
581.01	38.790
581.35	38.351
581.68	38.311
582.02	37.362
582.35	37.577
582.69	37.654
583.02	38.167
583.36	38.875
583.70	38.986
584.03	39.551
584.37	39.420
584.70	38.819
585.04	38.405
585.37	37.698
585.71	37.688
586.04	38.101
586.38	38.114
586.72	39.326
587.05	38.196
587.39	37.968
587.72	38.109
588.06	38.821
588.39	38.134
588.73	38.486
589.06	39.233
589.40	40.101
589.73	39.388
590.07	39.573
590.40	39.678
590.73	40.047
591.07	40.619
591.40	40.784
591.74	40.996
592.07	39.878
592.41	40.761
592.74	38.801
593.08	38.241
593.41	38.564
593.75	36.883
594.08	37.546
594.41	38.636
594.75	38.299
595.08	38.225
595.42	38.809
595.75	38.426
596.09	39.129
596.42	38.939
596.75	39.637
597.09	39.610
597.42	38.069
597.75	39.198
598.09	39.348
598.42	39.132
598.76	37.779
599.09	37.514
599.42	37.409
599.76	37.225
600.09	37.996
600.42	37.874
600.76	37.286
601.09	37.086
601.42	37.633
601.76	38.330
602.09	37.628
602.42	37.938
602.76	38.170
603.09	37.608
603.42	37.681
603.76	37.309
604.09	37.301
604.42	37.750
604.76	38.423
605.09	37.309
605.42	37.324
605.75	37.583
606.09	37.007
606.42	38.006
606.75	37.453
607.09	36.794
607.42	37.227
607.75	37.215
608.08	37.429
608.42	38.100
608.75	38.007
609.08	37.697
609.41	38.410
609.75	37.875
610.08	38.219
610.41	37.104
610.74	37.228
611.07	38.538
611.41	38.224
611.74	38.160
612.07	38.458
612.40	38.353
612.73	39.211
613.07	38.093
613.40	38.968
613.73	37.756
614.06	38.065
614.39	37.493
614.72	37.263
615.06	38.393
615.39	37.261
615.72	38.292
616.05	37.374
616.38	38.021
616.71	38.895
617.05	39.046
617.38	38.725
617.71	37.778
618.04	38.882
618.37	37.552
618.70	38.581
619.03	39.868
619.36	39.986
619.69	39.085
620.03	39.423
620.36	40.107
620.69	39.110
621.02	40.265
621.35	39.468
621.68	40.109
622.01	40.944
622.34	40.545
622.67	40.304
623.00	38.591
623.33	37.670
623.66	38.885
623.99	38.586
624.32	39.872
624.65	38.983
624.99	37.819
625.32	37.726
625.65	39.820
625.98	39.816
626.31	40.513
626.64	40.327
626.97	40.898
627.30	39.401
627.63	39.869
627.96	41.127
628.29	40.245
628.62	40.348
628.95	43.302
629.28	40.146
629.61	40.880
629.94	41.333
630.26	41.563
630.59	42.326
630.92	42.050
631.25	41.264
631.58	42.342
