SpectraSuite Data File
++++++++++++++++++++++++++++++++++++
Date: Wed May 13 19:28:08 PDT 2015
User: schluterlab
Dark Spectrum Present: Yes
Reference Spectrum Present: Yes
Number of Sampled Component Spectra: 1
Spectrometers: USB2E3373
Integration Time (usec): 3000 (USB2E3373)
Spectra Averaged: 3 (USB2E3373)
Boxcar Smoothing: 0 (USB2E3373)
Correct for Electrical Dark: No (USB2E3373)
Strobe/Lamp Enabled: No (USB2E3373)
Correct for Detector Non-linearity: No (USB2E3373)
Correct for Stray Light: No (USB2E3373)
Number of Pixels in Processed Spectrum: 2048
>>>>>Begin Processed Spectral Data<<<<<
178.53	0.000
178.91	-1300.000
179.29	-1300.000
179.67	-261.111
180.04	-1475.000
180.42	3100.000
180.80	900.000
181.18	-1050.000
181.56	685.714
181.94	0.000
182.31	-671.429
182.69	1800.000
183.07	-525.000
183.45	-466.667
183.83	627.273
184.20	-410.000
184.58	2650.000
184.96	5100.000
185.34	-920.000
185.72	-612.500
186.09	-2300.000
186.47	2600.000
186.85	2200.000
187.23	5000.000
187.61	-1633.333
187.98	1525.000
188.36	645.455
188.74	536.364
189.12	-860.000
189.49	630.000
189.87	-6000.000
190.25	-1300.000
190.63	435.714
191.00	476.923
191.38	850.000
191.76	-1575.000
192.14	1450.000
192.51	675.000
192.89	933.333
193.27	675.000
193.65	-1050.000
194.02	530.000
194.40	1040.000
194.78	630.000
195.15	475.000
195.53	600.000
195.91	-1950.000
196.29	406.250
196.66	321.053
197.04	-300.000
197.42	0.000
197.79	740.000
198.17	-5700.000
198.55	671.429
198.92	750.000
199.30	880.000
199.68	0.000
200.05	322.222
200.43	685.714
200.81	4000.000
201.18	1866.667
201.56	-1600.000
201.94	522.222
202.31	555.556
202.69	441.667
203.07	520.000
203.44	0.000
203.82	1375.000
204.19	871.429
204.57	392.857
204.95	662.500
205.32	1800.000
205.70	609.091
206.08	450.000
206.45	2600.000
206.83	393.750
207.20	950.000
207.58	840.000
207.96	255.556
208.33	662.500
208.71	-916.667
209.08	928.571
209.46	533.333
209.84	500.000
210.21	-1366.667
210.59	1500.000
210.96	-462.500
211.34	2600.000
211.71	700.000
212.09	833.333
212.46	0.000
212.84	1933.333
213.22	1350.000
213.59	-4800.000
213.97	700.000
214.34	814.286
214.72	627.273
215.09	1120.000
215.47	-2600.000
215.84	-2800.000
216.22	1733.333
216.59	385.714
216.97	1300.000
217.34	436.364
217.72	-883.333
218.09	0.000
218.47	-4700.000
218.84	655.556
219.22	714.286
219.59	1900.000
219.97	-671.429
220.34	940.000
220.72	-1766.667
221.09	371.429
221.47	1525.000
221.84	-850.000
222.22	0.000
222.59	1300.000
222.97	-2800.000
223.34	1200.000
223.72	400.000
224.09	1040.000
224.46	2400.000
224.84	-3900.000
225.21	-1000.000
225.59	-4700.000
225.96	700.000
226.34	305.000
226.71	2850.000
227.08	687.500
227.46	650.000
227.83	-1000.000
228.21	-2300.000
228.58	566.667
228.95	-2600.000
229.33	-2300.000
229.70	1833.333
230.08	757.143
230.45	-900.000
230.82	483.333
231.20	883.333
231.57	771.429
231.95	458.333
232.32	236.364
232.69	472.727
233.07	642.857
233.44	315.385
233.81	-1600.000
234.19	315.789
234.56	500.000
234.93	391.667
235.31	390.909
235.68	361.538
236.05	364.286
236.43	187.879
236.80	231.579
237.17	4100.000
237.55	219.048
237.92	203.571
238.29	233.333
238.67	193.548
239.04	213.793
239.41	147.222
239.79	117.391
240.16	140.476
240.53	115.909
240.91	94.118
241.28	102.000
241.65	124.000
242.02	92.754
242.40	83.871
242.77	80.000
243.14	69.892
243.51	78.652
243.89	74.118
244.26	68.889
244.63	54.839
245.00	64.894
245.38	61.386
245.75	57.944
246.12	47.706
246.49	60.584
246.87	57.600
247.24	55.385
247.61	50.000
247.98	44.444
248.36	39.189
248.73	42.675
249.10	52.866
249.47	45.763
249.84	41.176
250.22	39.037
250.59	40.828
250.96	45.455
251.33	40.758
251.70	39.604
252.08	33.333
252.45	36.771
252.82	33.043
253.19	35.745
253.56	32.157
253.94	36.100
254.31	32.031
254.68	37.692
255.05	34.686
255.42	32.114
255.79	29.412
256.16	33.574
256.54	29.682
256.91	32.028
257.28	26.978
257.65	32.013
258.02	29.193
258.39	28.391
258.76	25.084
259.14	28.869
259.51	28.267
259.88	25.466
260.25	27.190
260.62	30.347
260.99	26.087
261.36	30.030
261.73	28.367
262.10	25.581
262.47	27.606
262.85	24.791
263.22	23.932
263.59	27.635
263.96	25.824
264.33	25.849
264.70	25.789
265.07	25.064
265.44	25.253
265.81	24.574
266.18	25.126
266.55	25.122
266.92	22.113
267.29	23.611
267.66	22.936
268.03	23.182
268.40	22.196
268.77	20.286
269.14	25.901
269.51	23.702
269.88	24.476
270.25	22.799
270.62	23.371
270.99	23.656
271.36	22.103
271.73	23.832
272.10	21.739
272.47	23.656
272.84	20.563
273.21	24.738
273.58	21.179
273.95	21.593
274.32	20.248
274.69	23.983
275.06	20.079
275.43	19.574
275.80	23.046
276.17	22.607
276.54	22.661
276.91	21.146
277.28	18.359
277.65	22.244
278.02	19.462
278.39	22.461
278.76	18.727
279.13	22.830
279.50	21.788
279.87	22.112
280.23	19.162
280.60	21.663
280.97	20.148
281.34	21.062
281.71	21.455
282.08	21.305
282.45	19.636
282.82	20.604
283.19	18.538
283.56	20.000
283.92	20.643
284.29	18.871
284.66	19.601
285.03	20.072
285.40	20.246
285.77	19.529
286.14	17.098
286.51	19.500
286.87	18.462
287.24	21.010
287.61	18.299
287.98	19.643
288.35	18.067
288.72	18.380
289.08	19.092
289.45	18.616
289.82	17.886
290.19	17.425
290.56	18.070
290.93	15.861
291.29	16.411
291.66	16.962
292.03	18.023
292.40	18.502
292.77	15.828
293.13	16.269
293.50	17.784
293.87	17.630
294.24	16.148
294.60	15.284
294.97	14.390
295.34	17.348
295.71	16.477
296.08	15.527
296.44	16.094
296.81	14.267
297.18	17.480
297.55	13.325
297.91	14.380
298.28	16.466
298.65	16.057
299.02	15.942
299.38	14.077
299.75	12.668
300.12	14.304
300.48	14.125
300.85	13.564
301.22	14.522
301.59	14.394
301.95	14.610
302.32	13.736
302.69	13.740
303.05	14.182
303.42	13.457
303.79	13.930
304.15	13.170
304.52	13.789
304.89	13.124
305.25	13.225
305.62	13.364
305.99	13.223
306.35	14.094
306.72	13.341
307.09	14.428
307.45	15.315
307.82	12.723
308.19	12.914
308.55	13.484
308.92	13.856
309.29	12.672
309.65	12.513
310.02	12.051
310.38	13.548
310.75	13.833
311.12	12.897
311.48	14.002
311.85	13.836
312.22	13.632
312.58	13.514
312.95	14.995
313.31	13.495
313.68	14.241
314.05	15.878
314.41	14.573
314.78	14.904
315.14	14.002
315.51	17.199
315.87	15.743
316.24	16.087
316.61	15.497
316.97	14.971
317.34	14.775
317.70	16.826
318.07	18.768
318.43	17.808
318.80	17.807
319.16	19.303
319.53	19.137
319.89	20.476
320.26	21.100
320.62	19.940
320.99	20.808
321.35	22.121
321.72	21.253
322.08	22.310
322.45	23.881
322.81	24.612
323.18	24.952
323.54	25.417
323.91	26.321
324.27	25.908
324.64	25.909
325.00	27.051
325.37	28.935
325.73	29.174
326.10	29.568
326.46	29.301
326.83	29.336
327.19	30.145
327.56	31.707
327.92	31.846
328.29	33.452
328.65	33.057
329.01	33.213
329.38	33.765
329.74	34.164
330.11	35.533
330.47	35.445
330.84	35.018
331.20	34.973
331.56	35.138
331.93	36.759
332.29	36.469
332.66	36.549
333.02	37.020
333.38	36.495
333.75	36.631
334.11	36.833
334.48	36.912
334.84	36.765
335.20	38.818
335.57	37.625
335.93	36.964
336.29	38.095
336.66	38.233
337.02	37.104
337.38	38.611
337.75	37.166
338.11	38.406
338.47	39.687
338.84	38.772
339.20	38.899
339.56	39.416
339.93	38.636
340.29	37.953
340.65	38.859
341.02	39.616
341.38	38.523
341.74	38.158
342.11	39.039
342.47	39.295
342.83	38.870
343.20	39.481
343.56	38.416
343.92	39.912
344.28	39.371
344.65	39.467
345.01	38.131
345.37	38.250
345.73	39.848
346.10	39.386
346.46	39.237
346.82	38.715
347.19	40.017
347.55	39.573
347.91	39.239
348.27	41.167
348.63	39.883
349.00	39.401
349.36	39.080
349.72	38.813
350.08	39.222
350.45	39.707
350.81	39.561
351.17	39.222
351.53	39.722
351.89	39.521
352.26	40.568
352.62	41.620
352.98	40.276
353.34	41.495
353.70	39.444
354.07	40.806
354.43	40.635
354.79	38.858
355.15	40.064
355.51	42.286
355.87	41.061
356.24	42.101
356.60	40.497
356.96	41.754
357.32	41.374
357.68	42.520
358.04	41.489
358.40	41.647
358.77	40.923
359.13	41.358
359.49	41.098
359.85	41.270
360.21	42.344
360.57	42.257
360.93	43.077
361.29	40.816
361.66	41.176
362.02	42.836
362.38	42.357
362.74	41.815
363.10	41.007
363.46	41.966
363.82	41.950
364.18	42.584
364.54	43.759
364.90	42.280
365.26	42.721
365.62	43.974
365.98	42.732
366.35	42.335
366.71	42.878
367.07	43.190
367.43	43.541
367.79	44.325
368.15	44.181
368.51	42.442
368.87	43.969
369.23	43.453
369.59	44.605
369.95	43.750
370.31	43.305
370.67	43.043
371.03	45.318
371.39	44.023
371.75	45.221
372.11	43.670
372.47	44.355
372.83	45.821
373.19	44.220
373.55	44.568
373.91	46.539
374.27	43.574
374.63	46.400
374.99	45.268
375.35	43.754
375.71	43.180
376.07	44.307
376.42	46.080
376.78	45.924
377.14	46.608
377.50	46.225
377.86	44.481
378.22	45.006
378.58	45.050
378.94	45.820
379.30	46.374
379.66	46.129
380.02	45.823
380.38	45.780
380.74	45.018
381.09	46.699
381.45	46.343
381.81	46.192
382.17	47.006
382.53	46.164
382.89	46.975
383.25	47.342
383.61	47.955
383.97	47.217
384.32	45.727
384.68	46.221
385.04	46.896
385.40	47.059
385.76	47.297
386.12	47.150
386.48	47.955
386.83	47.146
387.19	48.485
387.55	47.495
387.91	47.158
388.27	47.762
388.62	47.757
388.98	46.376
389.34	47.935
389.70	47.394
390.06	47.148
390.42	48.703
390.77	47.010
391.13	48.564
391.49	48.541
391.85	48.059
392.20	46.562
392.56	48.801
392.92	49.147
393.28	47.811
393.64	48.082
393.99	46.793
394.35	47.395
394.71	48.369
395.07	47.165
395.42	49.197
395.78	48.410
396.14	48.914
396.50	48.622
396.85	48.887
397.21	48.027
397.57	48.233
397.92	48.317
398.28	48.150
398.64	48.387
399.00	47.678
399.35	47.885
399.71	47.685
400.07	48.788
400.42	48.160
400.78	48.492
401.14	49.329
401.49	47.761
401.85	48.336
402.21	47.126
402.57	48.057
402.92	49.811
403.28	48.720
403.63	47.710
403.99	48.344
404.35	48.242
404.70	47.362
405.06	47.699
405.42	48.908
405.77	47.486
406.13	47.178
406.49	47.782
406.84	47.431
407.20	47.577
407.55	47.671
407.91	49.200
408.27	49.394
408.62	47.863
408.98	48.591
409.34	48.093
409.69	48.516
410.05	47.770
410.40	48.196
410.76	48.268
411.11	47.407
411.47	47.220
411.83	48.137
412.18	47.248
412.54	47.447
412.89	47.530
413.25	46.576
413.60	47.190
413.96	46.934
414.31	47.023
414.67	47.719
415.03	48.874
415.38	47.938
415.74	48.682
416.09	48.138
416.45	48.327
416.80	48.381
417.16	48.794
417.51	48.573
417.87	46.435
418.22	48.391
418.58	46.482
418.93	46.744
419.29	47.549
419.64	48.111
420.00	47.012
420.35	46.203
420.71	47.699
421.06	46.599
421.42	46.374
421.77	46.525
422.12	45.929
422.48	45.494
422.83	47.117
423.19	45.193
423.54	47.069
423.90	46.551
424.25	46.064
424.61	46.369
424.96	46.239
425.31	46.124
425.67	45.393
426.02	46.343
426.38	46.032
426.73	46.752
427.09	46.079
427.44	45.428
427.79	45.888
428.15	45.774
428.50	45.056
428.85	46.126
429.21	44.506
429.56	45.308
429.92	44.489
430.27	44.935
430.62	44.393
430.98	45.304
431.33	44.278
431.68	44.346
432.04	44.196
432.39	44.832
432.74	45.242
433.10	44.652
433.45	45.539
433.80	45.011
434.16	43.964
434.51	44.579
434.86	44.413
435.22	44.358
435.57	44.134
435.92	43.827
436.28	44.425
436.63	45.143
436.98	44.305
437.34	43.769
437.69	44.982
438.04	44.013
438.39	44.299
438.75	44.044
439.10	43.408
439.45	44.097
439.81	43.988
440.16	43.704
440.51	43.820
440.86	44.296
441.22	43.826
441.57	44.374
441.92	43.091
442.27	43.595
442.63	43.075
442.98	43.775
443.33	42.935
443.68	43.211
444.03	42.899
444.39	42.600
444.74	42.587
445.09	42.965
445.44	43.029
445.79	42.553
446.15	42.298
446.50	42.219
446.85	43.474
447.20	42.223
447.55	42.825
447.91	42.306
448.26	42.181
448.61	42.001
448.96	42.470
449.31	41.282
449.66	41.756
450.02	41.894
450.37	42.177
450.72	41.794
451.07	41.987
451.42	41.763
451.77	42.396
452.12	41.455
452.47	42.600
452.83	41.667
453.18	41.259
453.53	42.486
453.88	41.524
454.23	40.646
454.58	40.763
454.93	41.386
455.28	40.835
455.63	41.566
455.98	42.202
456.34	41.583
456.69	40.889
457.04	42.477
457.39	40.210
457.74	40.511
458.09	39.218
458.44	39.681
458.79	38.937
459.14	40.745
459.49	40.339
459.84	39.778
460.19	39.187
460.54	38.426
460.89	39.002
461.24	39.162
461.59	41.604
461.94	38.594
462.29	40.178
462.64	38.098
462.99	39.102
463.34	39.133
463.69	39.962
464.04	39.072
464.39	39.130
464.74	38.919
465.09	38.299
465.44	37.950
465.79	37.360
466.14	37.986
466.49	37.264
466.84	38.354
467.19	37.658
467.54	37.125
467.89	37.875
468.24	38.220
468.59	38.523
468.94	37.019
469.29	38.239
469.64	38.153
469.99	39.513
470.34	36.790
470.68	39.152
471.03	37.279
471.38	38.499
471.73	37.708
472.08	37.171
472.43	35.176
472.78	37.525
473.13	36.521
473.48	37.203
473.83	36.829
474.17	35.905
474.52	36.849
474.87	36.894
475.22	36.448
475.57	35.357
475.92	35.157
476.27	35.513
476.61	34.639
476.96	35.019
477.31	35.479
477.66	35.722
478.01	34.710
478.36	35.960
478.70	34.372
479.05	34.771
479.40	33.879
479.75	34.316
480.10	34.394
480.45	33.746
480.79	32.967
481.14	34.736
481.49	34.124
481.84	34.156
482.19	33.985
482.53	33.532
482.88	33.318
483.23	33.131
483.58	33.394
483.92	33.037
484.27	31.721
484.62	32.888
484.97	32.440
485.31	32.774
485.66	30.949
486.01	30.048
486.36	28.972
486.70	29.191
487.05	29.635
487.40	30.950
487.75	30.668
488.09	31.332
488.44	30.954
488.79	32.333
489.13	32.162
489.48	31.444
489.83	31.549
490.17	32.354
490.52	31.399
490.87	31.615
491.22	31.332
491.56	30.661
491.91	30.805
492.26	30.730
492.60	31.290
492.95	30.355
493.30	30.841
493.64	31.031
493.99	30.409
494.34	30.666
494.68	31.731
495.03	30.639
495.37	29.269
495.72	31.238
496.07	30.348
496.41	28.673
496.76	30.343
497.11	29.941
497.45	30.182
497.80	29.750
498.14	30.290
498.49	29.951
498.84	30.872
499.18	29.048
499.53	28.680
499.87	28.984
500.22	29.157
500.56	29.660
500.91	29.087
501.26	29.777
501.60	29.805
501.95	29.193
502.29	29.335
502.64	29.050
502.98	27.910
503.33	28.839
503.67	28.121
504.02	28.578
504.36	29.434
504.71	29.116
505.06	29.398
505.40	28.877
505.75	28.255
506.09	28.183
506.44	28.564
506.78	28.592
507.13	28.319
507.47	28.131
507.82	28.926
508.16	27.812
508.51	28.818
508.85	27.954
509.19	27.398
509.54	28.929
509.88	27.769
510.23	27.661
510.57	28.483
510.92	27.240
511.26	27.287
511.61	27.749
511.95	27.296
512.30	27.041
512.64	27.727
512.98	28.457
513.33	28.533
513.67	27.535
514.02	26.461
514.36	27.854
514.70	28.279
515.05	27.552
515.39	27.818
515.74	27.365
516.08	28.116
516.42	27.248
516.77	28.595
517.11	26.360
517.46	27.540
517.80	27.642
518.14	25.999
518.49	27.071
518.83	26.875
519.17	26.212
519.52	26.542
519.86	27.496
520.20	27.341
520.55	27.708
520.89	26.946
521.23	27.744
521.58	28.391
521.92	27.679
522.26	26.174
522.61	27.040
522.95	27.256
523.29	27.267
523.64	26.524
523.98	27.295
524.32	26.840
524.66	26.999
525.01	27.022
525.35	26.394
525.69	26.293
526.04	26.417
526.38	26.663
526.72	25.583
527.06	26.805
527.41	25.681
527.75	26.881
528.09	25.883
528.43	26.577
528.78	26.490
529.12	24.788
529.46	26.516
529.80	25.866
530.15	25.732
530.49	25.231
530.83	26.203
531.17	26.501
531.51	26.524
531.86	25.097
532.20	26.336
532.54	26.393
532.88	25.610
533.22	24.735
533.57	25.432
533.91	25.226
534.25	25.091
534.59	24.710
534.93	24.628
535.27	25.407
535.62	25.580
535.96	26.114
536.30	24.921
536.64	26.014
536.98	25.680
537.32	25.214
537.66	25.267
538.01	25.543
538.35	24.758
538.69	26.292
539.03	24.496
539.37	24.473
539.71	22.359
540.05	24.837
540.39	25.116
540.73	24.903
541.07	25.438
541.42	24.527
541.76	25.355
542.10	25.550
542.44	25.828
542.78	25.626
543.12	23.608
543.46	24.852
543.80	24.854
544.14	23.620
544.48	25.016
544.82	24.439
545.16	24.073
545.50	24.422
545.84	24.530
546.18	24.983
546.52	25.052
546.86	23.711
547.20	24.882
547.54	25.518
547.88	24.554
548.22	24.222
548.56	24.843
548.90	23.752
549.24	23.232
549.58	24.966
549.92	24.038
550.26	24.290
550.60	23.444
550.94	24.366
551.28	23.775
551.62	24.155
551.96	24.140
552.30	23.618
552.64	24.341
552.98	24.068
553.32	24.005
553.66	23.995
554.00	23.404
554.34	24.086
554.68	24.034
555.02	24.683
555.36	24.217
555.69	22.598
556.03	23.486
556.37	23.738
556.71	22.578
557.05	23.039
557.39	24.143
557.73	23.783
558.07	24.511
558.41	23.010
558.75	23.586
559.08	23.937
559.42	23.356
559.76	23.897
560.10	23.626
560.44	23.201
560.78	22.355
561.12	23.021
561.45	24.185
561.79	22.874
562.13	22.468
562.47	22.883
562.81	23.431
563.15	22.809
563.48	22.546
563.82	23.092
564.16	23.349
564.50	21.875
564.84	22.946
565.17	22.780
565.51	22.748
565.85	22.208
566.19	21.728
566.52	22.863
566.86	21.820
567.20	22.583
567.54	22.489
567.88	20.913
568.21	22.222
568.55	21.031
568.89	20.914
569.23	20.900
569.56	20.364
569.90	20.415
570.24	20.093
570.57	19.619
570.91	19.554
571.25	19.333
571.59	19.352
571.92	19.528
572.26	19.093
572.60	19.850
572.93	19.070
573.27	19.196
573.61	19.403
573.95	18.811
574.28	18.593
574.62	18.513
574.96	18.853
575.29	18.259
575.63	18.902
575.97	18.953
576.30	19.357
576.64	18.650
576.98	18.741
577.31	18.369
577.65	18.740
577.98	18.436
578.32	18.189
578.66	17.841
578.99	18.398
579.33	18.494
579.67	18.438
580.00	18.605
580.34	18.415
580.67	18.648
581.01	18.417
581.35	18.061
581.68	17.705
582.02	17.824
582.35	17.486
582.69	17.984
583.02	18.226
583.36	18.169
583.70	18.656
584.03	18.469
584.37	18.893
584.70	18.365
585.04	18.126
585.37	17.870
585.71	18.398
586.04	18.652
586.38	18.495
586.72	19.056
587.05	17.903
587.39	17.757
587.72	18.294
588.06	18.010
588.39	18.464
588.73	17.923
589.06	18.760
589.40	19.125
589.73	18.691
590.07	18.327
590.40	18.268
590.73	19.048
591.07	18.885
591.40	18.895
591.74	19.567
592.07	19.284
592.41	19.388
592.74	18.539
593.08	18.721
593.41	18.444
593.75	18.270
594.08	18.438
594.41	18.487
594.75	18.928
595.08	18.647
595.42	18.634
595.75	17.771
596.09	18.663
596.42	18.978
596.75	19.291
597.09	19.481
597.42	18.592
597.75	19.232
598.09	18.739
598.42	19.072
598.76	18.160
599.09	18.966
599.42	18.049
599.76	17.387
600.09	17.814
600.42	18.042
600.76	18.071
601.09	18.506
601.42	18.341
601.76	18.444
602.09	18.340
602.42	18.750
602.76	18.420
603.09	18.489
603.42	18.352
603.76	17.988
604.09	17.565
604.42	18.182
604.76	18.726
605.09	18.261
605.42	18.170
605.75	18.129
606.09	17.893
606.42	17.532
606.75	17.835
607.09	18.669
607.42	18.057
607.75	17.764
608.08	18.281
608.42	19.319
608.75	18.079
609.08	18.178
609.41	18.610
609.75	18.961
610.08	19.086
610.41	18.482
610.74	18.023
611.07	18.626
611.41	17.959
611.74	18.854
612.07	19.151
612.40	19.622
612.73	18.053
613.07	18.858
613.40	19.115
613.73	18.773
614.06	18.602
614.39	18.773
614.72	18.526
615.06	18.277
615.39	18.577
615.72	18.916
616.05	19.032
616.38	18.955
616.71	18.943
617.05	18.728
617.38	19.423
617.71	19.279
618.04	19.411
618.37	18.687
618.70	18.482
619.03	20.000
619.36	19.280
619.69	19.930
620.03	20.879
620.36	20.187
620.69	20.205
621.02	19.912
621.35	20.282
621.68	19.393
622.01	20.356
622.34	20.651
622.67	19.620
623.00	18.489
623.33	19.085
623.66	20.157
623.99	20.471
624.32	18.260
624.65	19.774
624.99	19.263
625.32	19.189
625.65	20.285
625.98	20.446
626.31	19.596
626.64	21.061
626.97	20.200
627.30	19.202
627.63	21.001
627.96	20.690
628.29	20.735
628.62	20.860
628.95	22.736
629.28	20.803
629.61	20.715
629.94	21.048
630.26	20.972
630.59	20.591
630.92	20.211
