SpectraSuite Data File
++++++++++++++++++++++++++++++++++++
Date: Wed May 13 19:45:21 PDT 2015
User: schluterlab
Dark Spectrum Present: Yes
Reference Spectrum Present: Yes
Number of Sampled Component Spectra: 1
Spectrometers: USB2E3373
Integration Time (usec): 3000 (USB2E3373)
Spectra Averaged: 3 (USB2E3373)
Boxcar Smoothing: 0 (USB2E3373)
Correct for Electrical Dark: No (USB2E3373)
Strobe/Lamp Enabled: No (USB2E3373)
Correct for Detector Non-linearity: No (USB2E3373)
Correct for Stray Light: No (USB2E3373)
Number of Pixels in Processed Spectrum: 2048
>>>>>Begin Processed Spectral Data<<<<<
178.53	0.000
178.91	-1350.000
179.29	-1250.000
179.67	-211.111
180.04	-1275.000
180.42	2700.000
180.80	1060.000
181.18	-1300.000
181.56	628.571
181.94	0.000
182.31	-685.714
182.69	2000.000
183.07	-737.500
183.45	-577.778
183.83	536.364
184.20	-450.000
184.58	2350.000
184.96	5000.000
185.34	-720.000
185.72	-512.500
186.09	-2300.000
186.47	3050.000
186.85	2550.000
187.23	4800.000
187.61	-1666.667
187.98	1350.000
188.36	490.909
188.74	427.273
189.12	-1080.000
189.49	570.000
189.87	-5100.000
190.25	-1300.000
190.63	471.429
191.00	523.077
191.38	733.333
191.76	-1025.000
192.14	1325.000
192.51	625.000
192.89	1050.000
193.27	650.000
193.65	-1500.000
194.02	480.000
194.40	960.000
194.78	580.000
195.15	566.667
195.53	600.000
195.91	-1550.000
196.29	431.250
196.66	310.526
197.04	-380.000
197.42	0.000
197.79	570.000
198.17	-5000.000
198.55	642.857
198.92	775.000
199.30	880.000
199.68	0.000
200.05	288.889
200.43	714.286
200.81	4700.000
201.18	1700.000
201.56	-1666.667
201.94	655.556
202.31	544.444
202.69	400.000
203.07	580.000
203.44	0.000
203.82	1075.000
204.19	828.571
204.57	471.429
204.95	637.500
205.32	1900.000
205.70	418.182
206.08	364.286
206.45	2950.000
206.83	412.500
207.20	966.667
207.58	960.000
207.96	327.778
208.33	875.000
208.71	-816.667
209.08	842.857
209.46	677.778
209.84	463.636
210.21	-1666.667
210.59	1425.000
210.96	-512.500
211.34	2500.000
211.71	490.000
212.09	766.667
212.46	0.000
212.84	1533.333
213.22	1400.000
213.59	-4900.000
213.97	916.667
214.34	742.857
214.72	563.636
215.09	1040.000
215.47	-2400.000
215.84	-1950.000
216.22	1833.333
216.59	378.571
216.97	1150.000
217.34	481.818
217.72	-900.000
218.09	0.000
218.47	-5900.000
218.84	722.222
219.22	728.571
219.59	1800.000
219.97	-685.714
220.34	1040.000
220.72	-1800.000
221.09	428.571
221.47	1525.000
221.84	-950.000
222.22	0.000
222.59	1350.000
222.97	-2200.000
223.34	1100.000
223.72	446.154
224.09	1100.000
224.46	2550.000
224.84	-4700.000
225.21	-1140.000
225.59	-5300.000
225.96	640.000
226.34	285.000
226.71	2450.000
227.08	762.500
227.46	590.000
227.83	-1225.000
228.21	-2400.000
228.58	644.444
228.95	-2400.000
229.33	-2250.000
229.70	1666.667
230.08	757.143
230.45	-1020.000
230.82	483.333
231.20	883.333
231.57	685.714
231.95	508.333
232.32	277.273
232.69	481.818
233.07	685.714
233.44	430.769
233.81	-2066.667
234.19	300.000
234.56	433.333
234.93	441.667
235.31	545.455
235.68	376.923
236.05	421.429
236.43	154.545
236.80	289.474
237.17	4400.000
237.55	285.714
237.92	210.714
238.29	252.381
238.67	212.903
239.04	193.103
239.41	155.556
239.79	106.522
240.16	138.095
240.53	127.273
240.91	107.843
241.28	124.000
241.65	98.000
242.02	111.594
242.40	103.226
242.77	111.667
243.14	61.290
243.51	85.393
243.89	62.353
244.26	62.222
244.63	58.065
245.00	65.957
245.38	65.347
245.75	48.598
246.12	56.881
246.49	67.153
246.87	65.600
247.24	62.308
247.61	53.571
247.98	56.209
248.36	45.270
248.73	41.401
249.10	56.051
249.47	43.503
249.84	44.920
250.22	45.989
250.59	46.746
250.96	42.424
251.33	42.654
251.70	39.604
252.08	43.333
252.45	38.565
252.82	38.696
253.19	38.723
253.56	35.686
253.94	39.004
254.31	34.766
254.68	40.000
255.05	35.424
255.42	30.894
255.79	32.721
256.16	35.740
256.54	30.389
256.91	35.943
257.28	32.374
257.65	33.003
258.02	29.814
258.39	29.022
258.76	28.763
259.14	31.845
259.51	29.483
259.88	29.193
260.25	30.816
260.62	26.301
260.99	28.261
261.36	31.532
261.73	31.519
262.10	29.070
262.47	29.296
262.85	27.855
263.22	24.501
263.59	30.769
263.96	27.747
264.33	26.632
264.70	27.895
265.07	28.133
265.44	23.990
265.81	27.494
266.18	26.884
266.55	26.098
266.92	28.256
267.29	25.231
267.66	26.835
268.03	27.500
268.40	26.636
268.77	25.776
269.14	26.577
269.51	26.862
269.88	26.807
270.25	23.928
270.62	24.270
270.99	29.677
271.36	24.893
271.73	24.766
272.10	22.826
272.47	23.871
272.84	24.026
273.21	25.367
273.58	24.236
273.95	25.577
274.32	23.760
274.69	25.268
275.06	23.622
275.43	27.234
275.80	25.251
276.17	24.236
276.54	26.611
276.91	24.901
277.28	21.484
277.65	21.663
278.02	22.774
278.39	24.414
278.76	25.273
279.13	25.094
279.50	24.209
279.87	25.299
280.23	25.150
280.60	23.211
280.97	23.105
281.34	23.717
281.71	23.455
282.08	23.992
282.45	24.727
282.82	22.735
283.19	20.499
283.56	23.158
283.92	22.166
284.29	22.399
284.66	21.416
285.03	21.700
285.40	23.768
285.77	22.391
286.14	21.244
286.51	21.833
286.87	22.051
287.24	22.150
287.61	22.632
287.98	22.078
288.35	20.444
288.72	19.470
289.08	21.283
289.45	21.417
289.82	19.024
290.19	22.292
290.56	20.368
290.93	18.127
291.29	19.632
291.66	19.469
292.03	22.238
292.40	19.677
292.77	18.639
293.13	19.104
293.50	19.825
293.87	19.111
294.24	18.370
294.60	19.214
294.97	18.314
295.34	18.195
295.71	19.460
296.08	18.376
296.44	16.781
296.81	18.362
297.18	19.648
297.55	15.303
297.91	17.150
298.28	18.340
298.65	17.232
299.02	16.996
299.38	17.530
299.75	15.768
300.12	15.709
300.48	17.250
300.85	17.879
301.22	17.197
301.59	15.783
301.95	17.128
302.32	15.533
302.69	16.487
303.05	17.576
303.42	16.667
303.79	17.214
304.15	16.317
304.52	14.600
304.89	15.215
305.25	16.125
305.62	17.101
305.99	15.939
306.35	16.219
306.72	16.816
307.09	17.647
307.45	17.117
307.82	15.067
308.19	16.777
308.55	16.289
308.92	16.541
309.29	15.945
309.65	15.270
310.02	15.962
310.38	16.667
310.75	16.895
311.12	17.400
311.48	17.659
311.85	18.029
312.22	15.297
312.58	16.840
312.95	17.740
313.31	16.408
313.68	17.879
314.05	20.316
314.41	18.191
314.78	18.026
315.14	18.471
315.51	18.641
315.87	19.010
316.24	19.960
316.61	19.688
316.97	19.472
317.34	20.450
317.70	21.224
318.07	21.559
318.43	22.994
318.80	22.868
319.16	23.070
319.53	21.576
319.89	23.619
320.26	25.400
320.62	26.190
320.99	25.455
321.35	27.374
321.72	28.131
322.08	29.220
322.45	30.846
322.81	31.202
323.18	31.310
323.54	30.798
323.91	33.585
324.27	33.270
324.64	33.644
325.00	33.724
325.37	36.761
325.73	37.074
326.10	38.394
326.46	38.351
326.83	39.689
327.19	41.076
327.56	40.157
327.92	42.607
328.29	42.059
328.65	44.843
329.01	44.495
329.38	44.773
329.74	45.891
330.11	45.994
330.47	47.107
330.84	47.335
331.20	48.179
331.56	48.257
331.93	50.648
332.29	48.980
332.66	48.496
333.02	49.452
333.38	50.045
333.75	50.267
334.11	49.822
334.48	50.843
334.84	51.471
335.20	50.818
335.57	51.587
335.93	50.714
336.29	50.824
336.66	51.578
337.02	50.498
337.38	51.481
337.75	50.267
338.11	52.193
338.47	51.750
338.84	52.796
339.20	51.835
339.56	53.376
339.93	51.727
340.29	52.627
340.65	51.515
341.02	52.443
341.38	52.580
341.74	52.368
342.11	51.441
342.47	52.952
342.83	51.712
343.20	53.074
343.56	51.306
343.92	51.579
344.28	52.211
344.65	53.568
345.01	51.599
345.37	51.458
345.73	52.961
346.10	53.623
346.46	51.695
346.82	52.389
347.19	51.796
347.55	51.642
347.91	52.265
348.27	51.849
348.63	51.923
349.00	50.890
349.36	51.642
349.72	50.842
350.08	51.540
350.45	53.539
350.81	51.259
351.17	52.593
351.53	52.416
351.89	52.228
352.26	53.118
352.62	53.809
352.98	52.107
353.34	52.506
353.70	51.637
354.07	52.581
354.43	52.063
354.79	52.373
355.15	52.035
355.51	53.317
355.87	51.918
356.24	51.303
356.60	51.965
356.96	52.936
357.32	51.922
357.68	53.543
358.04	52.811
358.40	51.861
358.77	50.861
359.13	50.750
359.49	51.686
359.85	53.016
360.21	52.392
360.57	53.930
360.93	53.462
361.29	51.852
361.66	53.019
362.02	52.164
362.38	52.700
362.74	52.083
363.10	52.924
363.46	52.091
363.82	53.137
364.18	51.322
364.54	52.675
364.90	51.700
365.26	51.985
365.62	53.689
365.98	50.694
366.35	52.292
366.71	53.001
367.07	53.460
367.43	53.628
367.79	52.248
368.15	51.652
368.51	51.308
368.87	52.534
369.23	53.328
369.59	53.512
369.95	52.794
370.31	52.422
370.67	52.174
371.03	53.708
371.39	52.187
371.75	52.574
372.11	51.209
372.47	54.179
372.83	53.890
373.19	53.613
373.55	54.250
373.91	53.829
374.27	51.478
374.63	53.236
374.99	52.825
375.35	52.896
375.71	53.804
376.07	53.224
376.42	53.576
376.78	54.539
377.14	53.256
377.50	53.510
377.86	52.726
378.22	53.097
378.58	51.441
378.94	52.294
379.30	54.008
379.66	54.505
380.02	53.133
380.38	52.823
380.74	53.842
381.09	53.667
381.45	54.210
381.81	54.300
382.17	53.439
382.53	53.396
382.89	53.519
383.25	54.409
383.61	54.957
383.97	53.846
384.32	53.961
384.68	53.098
385.04	53.165
385.40	53.498
385.76	52.273
386.12	54.080
386.48	53.430
386.83	54.073
387.19	54.669
387.55	53.556
387.91	53.204
388.27	53.464
388.62	52.858
388.98	53.378
389.34	54.318
389.70	53.342
390.06	54.373
390.42	54.864
390.77	53.753
391.13	55.520
391.49	53.046
391.85	53.087
392.20	53.375
392.56	54.545
392.92	53.561
393.28	53.018
393.64	53.957
393.99	51.863
394.35	54.094
394.71	53.952
395.07	52.773
395.42	53.894
395.78	53.372
396.14	53.011
396.50	54.511
396.85	54.100
397.21	52.219
397.57	53.503
397.92	54.327
398.28	52.242
398.64	53.405
399.00	53.386
399.35	52.679
399.71	52.604
400.07	53.341
400.42	53.067
400.78	53.920
401.14	54.207
401.49	54.328
401.85	53.176
402.21	53.234
402.57	52.930
402.92	53.279
403.28	54.341
403.63	52.599
403.99	54.140
404.35	53.152
404.70	52.938
405.06	53.465
405.42	53.026
405.77	53.371
406.13	52.765
406.49	53.046
406.84	51.979
407.20	52.778
407.55	53.925
407.91	54.267
408.27	54.052
408.62	52.197
408.98	53.002
409.34	53.014
409.69	53.226
410.05	53.532
410.40	52.171
410.76	52.389
411.11	52.051
411.47	52.013
411.83	53.696
412.18	53.185
412.54	54.172
412.89	52.831
413.25	52.184
413.60	52.502
413.96	51.063
414.31	54.010
414.67	53.105
415.03	52.980
415.38	53.608
415.74	51.447
416.09	53.886
416.45	51.941
416.80	52.479
417.16	53.351
417.51	53.086
417.87	51.766
418.22	52.240
418.58	52.808
418.93	52.826
419.29	51.560
419.64	51.889
420.00	52.378
420.35	51.942
420.71	53.258
421.06	52.685
421.42	51.930
421.77	52.915
422.12	51.993
422.48	51.916
422.83	52.999
423.19	52.818
423.54	53.453
423.90	52.406
424.25	52.373
424.61	52.440
424.96	52.828
425.31	53.101
425.67	51.966
426.02	50.971
426.38	53.480
426.73	51.843
427.09	52.036
427.44	52.559
427.79	52.329
428.15	52.440
428.50	52.721
428.85	52.205
429.21	51.077
429.56	51.788
429.92	51.887
430.27	51.043
430.62	50.998
430.98	51.790
431.33	50.979
431.68	51.937
432.04	50.799
432.39	51.513
432.74	52.723
433.10	52.179
433.45	53.994
433.80	52.217
434.16	51.709
434.51	51.789
434.86	51.995
435.22	52.029
435.57	52.280
435.92	52.077
436.28	52.610
436.63	52.925
436.98	52.833
437.34	52.892
437.69	53.209
438.04	51.546
438.39	52.418
438.75	52.121
439.10	53.184
439.45	52.834
439.81	52.508
440.16	52.005
440.51	53.251
440.86	53.619
441.22	51.557
441.57	52.229
441.92	53.122
442.27	52.906
442.63	52.396
442.98	53.521
443.33	52.228
443.68	52.297
444.03	52.513
444.39	52.629
444.74	51.732
445.09	52.237
445.44	51.832
445.79	52.202
446.15	51.720
446.50	52.827
446.85	51.696
447.20	53.187
447.55	52.820
447.91	52.344
448.26	52.142
448.61	52.233
448.96	52.713
449.31	53.487
449.66	51.998
450.02	51.588
450.37	51.417
450.72	52.284
451.07	52.651
451.42	51.733
451.77	52.143
452.12	52.367
452.47	51.430
452.83	52.972
453.18	53.056
453.53	52.752
453.88	51.802
454.23	52.481
454.58	52.211
454.93	53.083
455.28	51.870
455.63	51.699
455.98	53.452
456.34	51.131
456.69	52.286
457.04	52.136
457.39	51.490
457.74	51.016
458.09	51.696
458.44	51.653
458.79	50.597
459.14	51.411
459.49	50.671
459.84	51.911
460.19	50.972
460.54	50.000
460.89	51.015
461.24	52.277
461.59	52.469
461.94	51.171
462.29	52.522
462.64	50.734
462.99	50.943
463.34	51.800
463.69	51.845
464.04	51.652
464.39	51.826
464.74	51.099
465.09	52.232
465.44	50.859
465.79	50.727
466.14	50.356
466.49	50.000
466.84	51.372
467.19	50.996
467.54	52.062
467.89	49.640
468.24	50.669
468.59	52.259
468.94	50.886
469.29	51.542
469.64	50.736
469.99	51.218
470.34	51.453
470.68	52.083
471.03	51.020
471.38	51.842
471.73	50.700
472.08	52.697
472.43	50.063
472.78	51.745
473.13	50.834
473.48	51.436
473.83	51.159
474.17	50.529
474.52	51.489
474.87	51.430
475.22	51.016
475.57	49.221
475.92	50.398
476.27	50.282
476.61	50.469
476.96	50.137
477.31	49.712
477.66	50.383
478.01	49.294
478.36	49.921
478.70	50.363
479.05	50.000
479.40	51.535
479.75	50.178
480.10	49.602
480.45	48.929
480.79	48.447
481.14	50.636
481.49	49.454
481.84	49.017
482.19	49.478
482.53	48.807
482.88	48.488
483.23	50.654
483.58	49.045
483.92	49.391
484.27	48.017
484.62	48.578
484.97	47.536
485.31	48.151
485.66	46.362
486.01	45.578
486.36	44.312
486.70	43.960
487.05	44.204
487.40	46.144
487.75	46.057
488.09	47.831
488.44	47.698
488.79	48.391
489.13	48.243
489.48	48.532
489.83	48.727
490.17	48.663
490.52	47.786
490.87	48.440
491.22	48.340
491.56	47.153
491.91	47.464
492.26	48.048
492.60	48.341
492.95	47.895
493.30	47.710
493.64	48.857
493.99	48.143
494.34	49.075
494.68	48.306
495.03	48.214
495.37	46.812
495.72	49.074
496.07	48.538
496.41	46.681
496.76	47.361
497.11	47.141
497.45	47.368
497.80	46.977
498.14	47.681
498.49	48.585
498.84	47.699
499.18	46.476
499.53	47.341
499.87	47.577
500.22	47.056
500.56	48.544
500.91	47.692
501.26	46.847
501.60	47.603
501.95	46.700
502.29	47.704
502.64	46.927
502.98	46.704
503.33	46.846
503.67	47.981
504.02	46.352
504.36	46.607
504.71	47.289
505.06	46.843
505.40	47.302
505.75	46.721
506.09	47.036
506.44	47.805
506.78	47.248
507.13	46.946
507.47	46.717
507.82	46.960
508.16	48.176
508.51	48.453
508.85	46.028
509.19	46.735
509.54	48.010
509.88	46.780
510.23	46.221
510.57	49.174
510.92	47.385
511.26	47.174
511.61	47.044
511.95	46.660
512.30	47.614
512.64	47.018
512.98	47.106
513.33	46.520
513.67	47.065
514.02	46.807
514.36	48.334
514.70	46.984
515.05	47.351
515.39	46.831
515.74	46.340
516.08	46.674
516.42	47.669
516.77	47.269
517.11	46.559
517.46	47.065
517.80	46.864
518.14	45.918
518.49	47.841
518.83	47.614
519.17	47.229
519.52	46.972
519.86	46.777
520.20	47.283
520.55	47.995
520.89	47.749
521.23	45.657
521.58	47.779
521.92	47.091
522.26	45.455
522.61	47.664
522.95	48.189
523.29	47.292
523.64	47.439
523.98	48.490
524.32	47.768
524.66	46.302
525.01	47.610
525.35	46.716
525.69	45.443
526.04	46.231
526.38	46.797
526.72	46.442
527.06	47.207
527.41	44.616
527.75	47.138
528.09	48.426
528.43	46.526
528.78	46.281
529.12	46.000
529.46	47.765
529.80	46.225
530.15	46.480
530.49	45.600
530.83	46.456
531.17	47.324
531.51	47.536
531.86	47.871
532.20	47.132
532.54	45.996
532.88	46.406
533.22	44.785
533.57	45.802
533.91	45.214
534.25	46.051
534.59	45.027
534.93	44.319
535.27	45.625
535.62	45.910
535.96	46.077
536.30	45.391
536.64	45.074
536.98	46.516
537.32	45.095
537.66	45.933
538.01	46.478
538.35	46.348
538.69	47.160
539.03	44.379
539.37	44.984
539.71	44.394
540.05	45.490
540.39	45.382
540.73	44.308
541.07	45.814
541.42	46.380
541.76	46.194
542.10	45.925
542.44	46.026
542.78	45.850
543.12	44.850
543.46	45.639
543.80	46.324
544.14	43.132
544.48	45.460
544.82	44.516
545.16	44.697
545.50	44.023
545.84	44.355
546.18	44.310
546.52	46.318
546.86	47.491
547.20	45.516
547.54	44.957
547.88	45.855
548.22	44.645
548.56	43.774
548.90	43.022
549.24	42.963
549.58	44.679
549.92	44.780
550.26	45.099
550.60	44.467
550.94	44.155
551.28	44.038
551.62	44.716
551.96	44.140
552.30	44.778
552.64	46.045
552.98	44.203
553.32	43.763
553.66	44.990
554.00	44.269
554.34	43.892
554.68	44.707
555.02	44.358
555.36	43.772
555.69	43.505
556.03	43.943
556.37	44.679
556.71	43.520
557.05	44.818
557.39	43.457
557.73	43.825
558.07	45.033
558.41	44.356
558.75	44.526
559.08	44.444
559.42	44.747
559.76	45.147
560.10	43.326
560.44	43.187
560.78	43.180
561.12	42.546
561.45	44.459
561.79	43.375
562.13	43.796
562.47	43.716
562.81	43.236
563.15	42.074
563.48	42.772
563.82	43.053
564.16	42.511
564.50	42.773
564.84	41.783
565.17	42.342
565.51	43.642
565.85	43.020
566.19	41.703
566.52	42.432
566.86	41.531
567.20	43.219
567.54	41.153
567.88	40.413
568.21	41.376
568.55	41.355
568.89	40.613
569.23	39.750
569.56	38.785
569.90	38.868
570.24	38.393
570.57	37.742
570.91	37.136
571.25	37.770
571.59	37.408
571.92	37.010
572.26	37.291
572.60	38.228
572.93	37.391
573.27	37.090
573.61	36.963
573.95	37.158
574.28	36.457
574.62	36.808
574.96	36.296
575.29	36.009
575.63	36.585
575.97	36.188
576.30	36.803
576.64	36.240
576.98	36.509
577.31	36.345
577.65	36.417
577.98	36.188
578.32	35.504
578.66	36.101
578.99	36.110
579.33	35.706
579.67	35.563
580.00	36.250
580.34	35.691
580.67	35.973
581.01	36.047
581.35	35.631
581.68	35.447
582.02	35.071
582.35	35.009
582.69	35.513
583.02	35.468
583.36	36.200
583.70	36.414
584.03	36.102
584.37	36.522
584.70	36.285
585.04	36.252
585.37	35.648
585.71	36.067
586.04	35.782
586.38	36.729
586.72	36.095
587.05	35.126
587.39	35.277
587.72	35.455
588.06	35.886
588.39	35.665
588.73	35.846
589.06	36.242
589.40	37.374
589.73	36.888
590.07	36.868
590.40	36.208
590.73	37.002
591.07	37.892
591.40	37.621
591.74	38.182
592.07	37.478
592.41	37.247
592.74	36.292
593.08	35.610
593.41	36.476
593.75	34.978
594.08	35.836
594.41	36.232
594.75	36.266
595.08	36.328
595.42	36.392
595.75	35.684
596.09	37.063
596.42	36.857
596.75	37.906
597.09	37.662
597.42	36.172
597.75	36.956
598.09	37.000
598.42	35.438
598.76	35.468
599.09	36.222
599.42	34.825
599.76	35.652
600.09	35.556
600.42	35.135
600.76	35.179
601.09	36.284
601.42	36.187
601.76	36.205
602.09	36.285
602.42	36.346
602.76	36.759
603.09	36.153
603.42	36.119
603.76	35.785
604.09	35.440
604.42	35.997
604.76	36.862
605.09	37.134
605.42	35.827
605.75	35.679
606.09	35.746
606.42	35.676
606.75	36.458
607.09	35.831
607.42	35.944
607.75	35.148
608.08	35.389
608.42	35.814
608.75	35.347
609.08	35.430
609.41	36.078
609.75	36.160
610.08	36.004
610.41	35.475
610.74	36.140
611.07	36.462
611.41	36.114
611.74	37.506
612.07	37.164
612.40	37.618
612.73	36.632
613.07	36.961
613.40	37.019
613.73	35.606
614.06	36.935
614.39	35.029
614.72	36.684
615.06	37.237
615.39	36.518
615.72	35.481
616.05	35.832
616.38	35.853
616.71	37.589
617.05	37.102
617.38	37.222
617.71	36.817
618.04	37.320
618.37	36.665
618.70	37.834
619.03	37.434
619.36	37.542
619.69	39.366
620.03	38.187
620.36	37.500
620.69	38.562
621.02	37.832
621.35	38.058
621.68	37.850
622.01	38.777
622.34	37.746
622.67	38.783
623.00	37.931
623.33	37.741
623.66	37.098
623.99	38.292
624.32	36.805
624.65	37.006
624.99	36.544
625.32	37.944
625.65	38.317
625.98	38.125
626.31	37.403
626.64	38.449
626.97	39.318
627.30	37.323
627.63	38.884
627.96	39.781
628.29	39.370
628.62	39.341
628.95	40.849
629.28	39.872
629.61	39.963
629.94	40.000
630.26	40.229
630.59	38.608
