SpectraSuite Data File
++++++++++++++++++++++++++++++++++++
Date: Wed May 13 19:54:03 PDT 2015
User: schluterlab
Dark Spectrum Present: Yes
Reference Spectrum Present: Yes
Number of Sampled Component Spectra: 1
Spectrometers: USB2E3373
Integration Time (usec): 3000 (USB2E3373)
Spectra Averaged: 3 (USB2E3373)
Boxcar Smoothing: 0 (USB2E3373)
Correct for Electrical Dark: No (USB2E3373)
Strobe/Lamp Enabled: No (USB2E3373)
Correct for Detector Non-linearity: No (USB2E3373)
Correct for Stray Light: No (USB2E3373)
Number of Pixels in Processed Spectrum: 2048
>>>>>Begin Processed Spectral Data<<<<<
178.53	0.000
178.91	-1325.000
179.29	-1350.000
179.67	-250.000
180.04	-1350.000
180.42	2250.000
180.80	1080.000
181.18	-1050.000
181.56	757.143
181.94	0.000
182.31	-842.857
182.69	1733.333
183.07	-575.000
183.45	-522.222
183.83	472.727
184.20	-410.000
184.58	2500.000
184.96	4900.000
185.34	-880.000
185.72	-725.000
186.09	-2000.000
186.47	2600.000
186.85	2650.000
187.23	5600.000
187.61	-1700.000
187.98	1250.000
188.36	590.909
188.74	563.636
189.12	-940.000
189.49	600.000
189.87	-4600.000
190.25	-1275.000
190.63	392.857
191.00	446.154
191.38	883.333
191.76	-1175.000
192.14	1575.000
192.51	725.000
192.89	1116.667
193.27	550.000
193.65	-1025.000
194.02	540.000
194.40	1000.000
194.78	540.000
195.15	425.000
195.53	610.000
195.91	-2000.000
196.29	400.000
196.66	300.000
197.04	-420.000
197.42	0.000
197.79	590.000
198.17	-4800.000
198.55	700.000
198.92	775.000
199.30	980.000
199.68	0.000
200.05	361.111
200.43	914.286
200.81	4800.000
201.18	1933.333
201.56	-1866.667
201.94	455.556
202.31	611.111
202.69	400.000
203.07	480.000
203.44	0.000
203.82	1175.000
204.19	857.143
204.57	492.857
204.95	612.500
205.32	1466.667
205.70	518.182
206.08	371.429
206.45	2600.000
206.83	306.250
207.20	933.333
207.58	900.000
207.96	372.222
208.33	800.000
208.71	-916.667
209.08	771.429
209.46	633.333
209.84	481.818
210.21	-1800.000
210.59	1525.000
210.96	-437.500
211.34	2750.000
211.71	630.000
212.09	683.333
212.46	0.000
212.84	1466.667
213.22	1500.000
213.59	-5000.000
213.97	883.333
214.34	728.571
214.72	590.909
215.09	1060.000
215.47	-2450.000
215.84	-2900.000
216.22	1633.333
216.59	385.714
216.97	1500.000
217.34	527.273
217.72	-716.667
218.09	0.000
218.47	-4600.000
218.84	711.111
219.22	714.286
219.59	1900.000
219.97	-700.000
220.34	1020.000
220.72	-1733.333
221.09	428.571
221.47	1700.000
221.84	-933.333
222.22	0.000
222.59	1375.000
222.97	-2650.000
223.34	1200.000
223.72	500.000
224.09	1000.000
224.46	2150.000
224.84	-4200.000
225.21	-1000.000
225.59	-4700.000
225.96	540.000
226.34	255.000
226.71	2950.000
227.08	712.500
227.46	600.000
227.83	-1125.000
228.21	-2550.000
228.58	633.333
228.95	-2450.000
229.33	-2200.000
229.70	1666.667
230.08	771.429
230.45	-840.000
230.82	433.333
231.20	850.000
231.57	771.429
231.95	441.667
232.32	222.727
232.69	372.727
233.07	728.571
233.44	361.538
233.81	-1900.000
234.19	315.789
234.56	450.000
234.93	425.000
235.31	327.273
235.68	361.538
236.05	371.429
236.43	196.970
236.80	242.105
237.17	4800.000
237.55	185.714
237.92	217.857
238.29	200.000
238.67	187.097
239.04	158.621
239.41	180.556
239.79	119.565
240.16	130.952
240.53	122.727
240.91	96.078
241.28	108.000
241.65	96.000
242.02	85.507
242.40	83.871
242.77	73.333
243.14	62.366
243.51	77.528
243.89	64.706
244.26	60.000
244.63	53.763
245.00	54.255
245.38	66.337
245.75	53.271
246.12	55.046
246.49	56.934
246.87	55.200
247.24	53.077
247.61	41.429
247.98	39.869
248.36	35.811
248.73	40.764
249.10	34.395
249.47	34.463
249.84	39.572
250.22	33.690
250.59	33.136
250.96	36.364
251.33	36.493
251.70	37.129
252.08	29.524
252.45	30.942
252.82	26.957
253.19	26.809
253.56	30.980
253.94	34.025
254.31	26.953
254.68	31.154
255.05	25.461
255.42	24.390
255.79	24.632
256.16	29.242
256.54	21.201
256.91	27.046
257.28	19.784
257.65	24.092
258.02	23.913
258.39	22.713
258.76	22.408
259.14	24.405
259.51	17.933
259.88	21.118
260.25	21.450
260.62	20.809
260.99	17.702
261.36	23.423
261.73	19.198
262.10	19.186
262.47	19.718
262.85	17.270
263.22	18.803
263.59	21.083
263.96	21.154
264.33	22.977
264.70	19.474
265.07	20.205
265.44	19.697
265.81	16.545
266.18	19.347
266.55	18.780
266.92	19.165
267.29	18.981
267.66	17.890
268.03	17.500
268.40	18.224
268.77	14.081
269.14	17.568
269.51	21.219
269.88	19.114
270.25	16.704
270.62	16.180
270.99	19.785
271.36	18.670
271.73	15.187
272.10	17.391
272.47	17.849
272.84	17.965
273.21	18.239
273.58	15.502
273.95	15.094
274.32	14.256
274.69	16.916
275.06	15.157
275.43	15.106
275.80	15.832
276.17	16.090
276.54	15.800
276.91	14.822
277.28	16.992
277.65	16.441
278.02	15.942
278.39	16.797
278.76	16.000
279.13	16.226
279.50	17.691
279.87	16.135
280.23	16.567
280.60	14.313
280.97	15.527
281.34	17.876
281.71	14.545
282.08	17.274
282.45	17.091
282.82	16.341
283.19	13.191
283.56	14.737
283.92	15.567
284.29	13.051
284.66	15.426
285.03	12.839
285.40	14.965
285.77	13.300
286.14	14.335
286.51	15.000
286.87	15.214
287.24	15.309
287.61	13.804
287.98	14.610
288.35	14.263
288.72	15.265
289.08	14.867
289.45	12.356
289.82	15.285
290.19	12.402
290.56	14.089
290.93	12.236
291.29	13.650
291.66	13.569
292.03	16.279
292.40	14.537
292.77	13.166
293.13	12.687
293.50	13.411
293.87	12.148
294.24	12.444
294.60	11.499
294.97	12.791
295.34	14.528
295.71	11.648
296.08	12.536
296.44	12.380
296.81	10.700
297.18	13.821
297.55	11.214
297.91	12.269
298.28	11.914
298.65	13.316
299.02	12.516
299.38	12.749
299.75	11.321
300.12	10.983
300.48	11.750
300.85	11.097
301.22	11.338
301.59	9.722
301.95	11.587
302.32	10.398
302.69	11.231
303.05	10.788
303.42	11.111
303.79	10.193
304.15	10.373
304.52	9.386
304.89	10.105
305.25	8.701
305.62	11.552
305.99	11.334
306.35	11.521
306.72	10.874
307.09	10.766
307.45	11.149
307.82	10.045
308.19	10.044
308.55	10.895
308.92	11.171
309.29	8.976
309.65	10.817
310.02	9.091
310.38	10.645
310.75	9.504
311.12	10.645
311.48	10.867
311.85	9.958
312.22	10.614
312.58	10.499
312.95	10.876
313.31	8.835
313.68	9.979
314.05	10.848
314.41	10.251
314.78	10.675
315.14	10.626
315.51	10.917
315.87	10.297
316.24	10.129
316.61	9.649
316.97	9.491
317.34	8.415
317.70	9.751
318.07	9.143
318.43	9.883
318.80	9.466
319.16	9.699
319.53	9.475
319.89	10.476
320.26	10.100
320.62	10.020
320.99	9.495
321.35	9.798
321.72	10.164
322.08	10.168
322.45	10.746
322.81	11.337
323.18	11.175
323.54	10.390
323.91	10.000
324.27	9.369
324.64	8.108
325.00	9.197
325.37	9.827
325.73	10.323
326.10	9.179
326.46	8.244
326.83	9.577
327.19	9.564
327.56	8.798
327.92	9.449
328.29	9.139
328.65	9.761
329.01	9.747
329.38	10.083
329.74	9.972
330.11	8.860
330.47	9.734
330.84	11.121
331.20	9.199
331.56	9.541
331.93	8.611
332.29	10.115
332.66	10.354
333.02	10.420
333.38	10.388
333.75	9.982
334.11	10.320
334.48	9.849
334.84	9.375
335.20	10.727
335.57	8.885
335.93	9.018
336.29	9.524
336.66	9.197
337.02	7.692
337.38	10.278
337.75	9.180
338.11	9.758
338.47	9.300
338.84	10.357
339.20	8.807
339.56	10.584
339.93	9.000
340.29	8.514
340.65	9.002
341.02	9.337
341.38	9.786
341.74	9.474
342.11	8.908
342.47	9.339
342.83	9.846
343.20	10.649
343.56	8.930
343.92	9.298
344.28	9.779
344.65	9.286
345.01	8.249
345.37	8.662
345.73	8.799
346.10	8.951
346.46	9.322
346.82	9.226
347.19	8.104
347.55	9.360
347.91	9.547
348.27	9.285
348.63	9.114
349.00	8.252
349.36	9.606
349.72	9.222
350.08	9.157
350.45	8.462
350.81	9.180
351.17	9.562
351.53	9.746
351.89	8.746
352.26	10.103
352.62	9.142
352.98	9.400
353.34	9.285
353.70	7.610
354.07	8.952
354.43	8.889
354.79	8.206
355.15	8.300
355.51	9.672
355.87	8.653
356.24	9.365
356.60	8.901
356.96	8.850
357.32	8.994
357.68	8.583
358.04	8.234
358.40	9.422
358.77	8.685
359.13	8.129
359.49	8.392
359.85	7.698
360.21	8.054
360.57	9.261
360.93	8.846
361.29	8.088
361.66	8.901
362.02	9.701
362.38	8.517
362.74	8.557
363.10	7.772
363.46	8.731
363.82	8.088
364.18	8.957
364.54	8.544
364.90	8.499
365.26	8.382
365.62	8.108
365.98	8.108
366.35	8.095
366.71	9.834
367.07	8.157
367.43	8.563
367.79	7.852
368.15	9.195
368.51	7.994
368.87	8.851
369.23	8.120
369.59	8.545
369.95	8.015
370.31	8.618
370.67	8.188
371.03	8.839
371.39	8.892
371.75	7.868
372.11	7.610
372.47	9.457
372.83	8.285
373.19	8.092
373.55	7.687
373.91	9.647
374.27	8.454
374.63	7.200
374.99	8.051
375.35	7.467
375.71	8.293
376.07	8.368
376.42	8.459
376.78	8.416
377.14	7.463
377.50	8.411
377.86	7.181
378.22	8.407
378.58	7.080
378.94	7.982
379.30	7.316
379.66	7.487
380.02	7.740
380.38	7.347
380.74	7.743
381.09	7.702
381.45	7.744
381.81	8.231
382.17	8.408
382.53	7.358
382.89	8.086
383.25	7.755
383.61	7.993
383.97	7.255
384.32	7.923
384.68	7.993
385.04	7.867
385.40	7.245
385.76	7.371
386.12	7.707
386.48	7.111
386.83	7.954
387.19	7.669
387.55	7.669
387.91	6.953
388.27	7.051
388.62	7.130
388.98	7.002
389.34	7.635
389.70	7.787
390.06	8.112
390.42	8.106
390.77	7.570
391.13	7.977
391.49	7.551
391.85	7.066
392.20	5.741
392.56	7.955
392.92	6.886
393.28	6.272
393.64	7.914
393.99	7.636
394.35	6.452
394.71	7.528
395.07	7.165
395.42	7.726
395.78	7.188
396.14	7.883
396.50	7.707
396.85	7.311
397.21	6.350
397.57	7.068
397.92	6.731
398.28	6.334
398.64	7.228
399.00	7.611
399.35	6.373
399.71	6.481
400.07	7.156
400.42	7.730
400.78	7.961
401.14	6.463
401.49	6.866
401.85	6.473
402.21	7.425
402.57	6.786
402.92	6.810
403.28	7.308
403.63	7.116
403.99	7.134
404.35	7.030
404.70	6.775
405.06	6.348
405.42	5.802
405.77	6.914
406.13	6.433
406.49	6.209
406.84	6.970
407.20	6.442
407.55	6.573
407.91	6.600
408.27	5.424
408.62	6.562
408.98	6.740
409.34	6.765
409.69	6.839
410.05	6.629
410.40	7.034
410.76	6.810
411.11	6.634
411.47	6.518
411.83	6.781
412.18	6.432
412.54	7.410
412.89	6.807
413.25	7.320
413.60	6.733
413.96	6.557
414.31	6.622
414.67	7.731
415.03	6.755
415.38	7.410
415.74	6.624
416.09	7.381
416.45	6.627
416.80	6.543
417.16	6.635
417.51	7.167
417.87	6.423
418.22	7.445
418.58	7.489
418.93	6.818
419.29	6.684
419.64	7.872
420.00	6.768
420.35	7.536
420.71	6.814
421.06	6.384
421.42	7.251
421.77	7.175
422.12	5.727
422.48	5.936
422.83	6.174
423.19	6.851
423.54	6.326
423.90	7.420
424.25	7.203
424.61	6.369
424.96	6.764
425.31	6.755
425.67	6.180
426.02	6.571
426.38	6.960
426.73	6.554
427.09	6.930
427.44	6.786
427.79	6.038
428.15	7.202
428.50	6.963
428.85	7.211
429.21	6.516
429.56	6.376
429.92	6.341
430.27	5.909
430.62	6.042
430.98	6.798
431.33	6.753
431.68	6.911
432.04	7.348
432.39	6.910
432.74	6.882
433.10	6.678
433.45	6.939
433.80	6.984
434.16	6.624
434.51	6.579
434.86	6.784
435.22	5.781
435.57	6.687
435.92	6.437
436.28	7.473
436.63	7.837
436.98	6.468
437.34	6.917
437.69	6.826
438.04	6.408
438.39	7.343
438.75	7.263
439.10	6.760
439.45	6.612
439.81	7.069
440.16	6.776
440.51	6.737
440.86	6.948
441.22	5.617
441.57	6.900
441.92	7.011
442.27	7.320
442.63	7.056
442.98	7.268
443.33	6.957
443.68	7.383
444.03	6.589
444.39	6.134
444.74	6.818
445.09	6.361
445.44	6.670
445.79	6.878
446.15	7.835
446.50	7.001
446.85	6.629
447.20	6.680
447.55	6.700
447.91	7.170
448.26	6.789
448.61	6.388
448.96	7.863
449.31	7.762
449.66	7.485
450.02	6.574
450.37	6.633
450.72	6.373
451.07	6.886
451.42	6.140
451.77	7.457
452.12	6.986
452.47	7.898
452.83	7.226
453.18	7.335
453.53	7.359
453.88	6.379
454.23	7.173
454.58	7.753
454.93	8.519
455.28	7.357
455.63	7.039
455.98	7.440
456.34	7.663
456.69	7.076
457.04	7.059
457.39	7.013
457.74	7.081
458.09	7.591
458.44	7.583
458.79	6.670
459.14	7.957
459.49	6.888
459.84	6.759
460.19	6.187
460.54	7.755
460.89	6.418
461.24	7.711
461.59	8.077
461.94	7.645
462.29	7.537
462.64	7.594
462.99	7.352
463.34	8.800
463.69	6.942
464.04	8.174
464.39	7.826
464.74	6.833
465.09	7.358
465.44	6.759
465.79	6.544
466.14	6.787
466.49	6.730
466.84	7.356
467.19	7.785
467.54	7.875
467.89	7.323
468.24	7.563
468.59	7.204
468.94	7.392
469.29	7.134
469.64	8.969
469.99	7.578
470.34	7.464
470.68	7.759
471.03	7.551
471.38	7.644
471.73	8.128
472.08	8.618
472.43	6.972
472.78	7.637
473.13	7.959
473.48	7.740
473.83	8.171
474.17	7.343
474.52	8.251
474.87	8.173
475.22	7.951
475.57	8.114
475.92	7.276
476.27	7.554
476.61	7.446
476.96	6.817
477.31	6.750
477.66	7.002
478.01	7.162
478.36	6.928
478.70	6.542
479.05	6.283
479.40	7.369
479.75	7.067
480.10	6.461
480.45	6.949
480.79	7.071
481.14	6.703
481.49	6.834
481.84	6.904
482.19	6.815
482.53	7.110
482.88	7.399
483.23	6.682
483.58	7.188
483.92	6.514
484.27	6.492
484.62	6.121
484.97	6.504
485.31	6.267
485.66	5.261
486.01	4.974
486.36	4.802
486.70	4.795
487.05	5.097
487.40	5.260
487.75	5.531
488.09	6.066
488.44	5.971
488.79	6.691
489.13	6.417
489.48	5.832
489.83	6.603
490.17	6.751
490.52	6.510
490.87	6.513
491.22	6.548
491.56	6.333
491.91	6.933
492.26	5.926
492.60	6.590
492.95	6.127
493.30	6.449
493.64	6.626
493.99	7.057
494.34	6.938
494.68	7.189
495.03	6.908
495.37	7.259
495.72	6.871
496.07	7.378
496.41	6.593
496.76	7.124
497.11	6.574
497.45	6.707
497.80	6.910
498.14	6.329
498.49	6.195
498.84	6.663
499.18	6.952
499.53	6.648
499.87	6.431
500.22	6.783
500.56	7.476
500.91	6.779
501.26	7.397
501.60	7.404
501.95	6.920
502.29	7.263
502.64	6.890
502.98	7.293
503.33	7.176
503.67	7.146
504.02	7.109
504.36	7.487
504.71	7.181
505.06	6.843
505.40	7.000
505.75	7.232
506.09	6.851
506.44	7.203
506.78	7.209
507.13	7.168
507.47	7.121
507.82	7.447
508.16	6.991
508.51	7.306
508.85	7.150
509.19	6.531
509.54	7.041
509.88	7.367
510.23	6.478
510.57	7.327
510.92	8.079
511.26	7.297
511.61	7.832
511.95	7.255
512.30	7.105
512.64	7.845
512.98	7.717
513.33	7.548
513.67	7.737
514.02	7.359
514.36	7.482
514.70	7.748
515.05	7.418
515.39	7.347
515.74	7.883
516.08	7.770
516.42	8.713
516.77	8.751
517.11	7.325
517.46	8.409
517.80	8.130
518.14	7.585
518.49	7.701
518.83	7.500
519.17	7.794
519.52	8.602
519.86	7.986
520.20	8.150
520.55	8.079
520.89	8.333
521.23	8.745
521.58	7.803
521.92	8.634
522.26	7.932
522.61	8.349
522.95	8.042
523.29	7.791
523.64	8.780
523.98	7.579
524.32	8.504
524.66	8.298
525.01	7.475
525.35	7.559
525.69	7.882
526.04	8.349
526.38	8.054
526.72	8.098
527.06	8.412
527.41	7.488
527.75	7.524
528.09	8.863
528.43	8.222
528.78	8.482
529.12	7.758
529.46	8.512
529.80	8.106
530.15	8.910
530.49	7.815
530.83	8.861
531.17	8.486
531.51	9.079
531.86	7.484
532.20	8.931
532.54	9.097
532.88	8.793
533.22	8.057
533.57	8.642
533.91	8.007
534.25	8.141
534.59	7.627
534.93	8.328
535.27	7.302
535.62	8.852
535.96	8.537
536.30	7.629
536.64	9.079
536.98	8.759
537.32	8.427
537.66	8.133
538.01	8.295
538.35	8.403
538.69	8.998
539.03	8.902
539.37	7.220
539.71	7.323
540.05	8.562
540.39	7.907
540.73	8.344
541.07	8.890
541.42	8.089
541.76	8.774
542.10	8.797
542.44	8.212
542.78	8.564
543.12	8.509
543.46	8.918
543.80	8.003
544.14	7.766
544.48	8.508
544.82	8.659
545.16	8.458
545.50	8.226
545.84	8.871
546.18	8.418
546.52	8.190
546.86	8.110
547.20	9.305
547.54	8.150
547.88	8.992
548.22	8.281
548.56	8.428
548.90	8.643
549.24	7.879
549.58	8.936
549.92	8.585
550.26	9.588
550.60	9.129
550.94	9.155
551.28	7.754
551.62	9.130
551.96	9.684
552.30	7.850
552.64	8.790
552.98	8.407
553.32	8.699
553.66	8.793
554.00	8.991
554.34	8.765
554.68	9.156
555.02	9.238
555.36	9.673
555.69	8.796
556.03	8.681
556.37	9.141
556.71	8.254
557.05	8.613
557.39	9.307
557.73	8.610
558.07	8.920
558.41	9.190
558.75	8.523
559.08	8.874
559.42	8.919
559.76	8.824
560.10	8.779
560.44	8.595
560.78	8.250
561.12	9.367
561.45	8.866
561.79	8.635
562.13	8.182
562.47	9.631
562.81	8.438
563.15	9.030
563.48	8.952
563.82	8.545
564.16	8.044
564.50	8.659
564.84	7.838
565.17	8.816
565.51	8.562
565.85	8.629
566.19	7.264
566.52	7.916
566.86	8.137
567.20	8.255
567.54	8.105
567.88	8.256
568.21	7.937
568.55	7.331
568.89	7.247
569.23	7.219
569.56	6.721
569.90	6.868
570.24	6.746
570.57	6.494
570.91	6.399
571.25	6.084
571.59	6.333
571.92	6.250
572.26	6.355
572.60	5.976
572.93	6.297
573.27	6.329
573.61	6.337
573.95	6.253
574.28	6.106
574.62	5.928
574.96	6.022
575.29	5.747
575.63	5.742
575.97	6.118
576.30	6.107
576.64	5.762
576.98	5.445
577.31	5.776
577.65	5.798
577.98	5.589
578.32	5.679
578.66	5.933
578.99	5.706
579.33	5.882
579.67	5.838
580.00	5.970
580.34	6.004
580.67	5.814
581.01	6.116
581.35	5.932
581.68	5.858
582.02	5.562
582.35	5.823
582.69	5.894
583.02	5.922
583.36	5.580
583.70	6.044
584.03	6.270
584.37	6.693
584.70	5.930
585.04	6.287
585.37	6.407
585.71	6.555
586.04	6.306
586.38	6.374
586.72	6.932
587.05	6.493
587.39	6.201
587.72	6.725
588.06	6.217
588.39	6.502
588.73	6.542
589.06	6.887
589.40	7.104
589.73	6.829
590.07	7.367
590.40	7.088
590.73	7.182
591.07	7.652
591.40	7.803
591.74	8.355
592.07	7.199
592.41	7.937
592.74	7.228
593.08	7.328
593.41	6.580
593.75	6.715
594.08	6.973
594.41	7.176
594.75	6.950
595.08	7.122
595.42	7.110
595.75	7.194
596.09	7.435
596.42	8.291
596.75	7.598
597.09	8.485
597.42	6.998
597.75	7.934
598.09	7.652
598.42	7.818
598.76	6.729
599.09	6.613
599.42	6.951
599.76	7.284
600.09	6.922
600.42	7.305
600.76	7.000
601.09	6.922
601.42	6.925
601.76	7.438
602.09	7.628
602.42	7.763
602.76	7.900
603.09	7.002
603.42	7.497
603.76	7.317
604.09	7.173
604.42	7.338
604.76	7.803
605.09	7.339
605.42	7.225
605.75	7.575
606.09	7.117
606.42	7.560
606.75	7.673
607.09	7.995
607.42	6.932
607.75	7.215
608.08	7.729
608.42	7.530
608.75	7.619
609.08	7.262
609.41	7.949
609.75	8.290
610.08	8.341
610.41	7.635
610.74	7.758
611.07	7.905
611.41	7.900
611.74	8.296
612.07	7.712
612.40	7.922
612.73	7.737
613.07	8.082
613.40	8.162
613.73	7.236
614.06	7.634
614.39	8.233
614.72	7.842
615.06	8.456
615.39	7.749
615.72	8.384
616.05	8.400
616.38	8.783
616.71	8.729
617.05	8.598
617.38	8.419
617.71	8.108
618.04	8.413
618.37	8.634
618.70	8.525
619.03	9.408
619.36	8.961
619.69	9.014
620.03	8.997
620.36	9.425
620.69	9.452
621.02	9.071
621.35	8.692
621.68	9.112
622.01	8.901
622.34	9.002
622.67	8.517
623.00	8.804
623.33	7.648
623.66	9.221
623.99	8.910
624.32	8.845
624.65	9.322
624.99	7.295
625.32	8.762
625.65	8.565
625.98	10.453
626.31	10.109
626.64	9.551
626.97	9.726
627.30	9.559
627.63	9.844
627.96	10.765
628.29	10.499
628.62	10.247
628.95	12.075
629.28	10.584
629.61	11.549
629.94	11.429
630.26	9.247
630.59	10.582
630.92	9.962
631.25	10.267
631.58	11.011
631.91	9.229
632.24	8.966
632.57	12.172
632.90	10.417
633.23	13.423
633.56	11.073
633.89	9.513
634.22	11.237
634.55	12.071
634.88	11.617
635.20	11.589
635.53	12.048
635.86	10.644
636.19	11.882
636.52	11.995
636.85	12.486
637.18	10.829
637.51	12.766
637.83	10.234
638.16	11.253
638.49	11.713
638.82	12.516
639.15	13.000
639.48	13.217
639.81	12.869
640.13	11.068
640.46	12.081
640.79	12.550
641.12	11.692
641.45	12.570
641.77	13.402
642.10	12.427
642.43	11.411
642.76	12.229
643.09	14.417
643.41	12.595
643.74	14.198
644.07	12.195
644.40	14.264
644.73	14.331
645.05	14.422
645.38	11.216
645.71	11.272
646.04	14.618
646.36	15.359
646.69	16.388
647.02	14.286
647.35	13.918
647.67	15.929
648.00	15.772
648.33	12.541
648.66	14.091
648.98	14.393
649.31	12.556
649.64	12.108
649.96	12.370
650.29	12.796
