SpectraSuite Data File
++++++++++++++++++++++++++++++++++++
Date: Wed May 13 19:21:29 PDT 2015
User: schluterlab
Dark Spectrum Present: Yes
Reference Spectrum Present: Yes
Number of Sampled Component Spectra: 1
Spectrometers: USB2E3373
Integration Time (usec): 3000 (USB2E3373)
Spectra Averaged: 3 (USB2E3373)
Boxcar Smoothing: 0 (USB2E3373)
Correct for Electrical Dark: No (USB2E3373)
Strobe/Lamp Enabled: No (USB2E3373)
Correct for Detector Non-linearity: No (USB2E3373)
Correct for Stray Light: No (USB2E3373)
Number of Pixels in Processed Spectrum: 2048
>>>>>Begin Processed Spectral Data<<<<<
178.53	0.000
178.91	-1450.000
179.29	-1600.000
179.67	-311.111
180.04	-1575.000
180.42	2950.000
180.80	1140.000
181.18	-1475.000
181.56	728.571
181.94	0.000
182.31	-900.000
182.69	2133.333
183.07	-650.000
183.45	-533.333
183.83	536.364
184.20	-420.000
184.58	2350.000
184.96	6900.000
185.34	-1020.000
185.72	-762.500
186.09	-2500.000
186.47	2900.000
186.85	3250.000
187.23	6000.000
187.61	-1666.667
187.98	1600.000
188.36	572.727
188.74	600.000
189.12	-920.000
189.49	680.000
189.87	-5700.000
190.25	-1425.000
190.63	464.286
191.00	530.769
191.38	966.667
191.76	-1250.000
192.14	1450.000
192.51	625.000
192.89	1033.333
193.27	737.500
193.65	-1550.000
194.02	580.000
194.40	1020.000
194.78	630.000
195.15	566.667
195.53	700.000
195.91	-2750.000
196.29	450.000
196.66	410.526
197.04	-410.000
197.42	0.000
197.79	650.000
198.17	-5900.000
198.55	814.286
198.92	750.000
199.30	1020.000
199.68	0.000
200.05	394.444
200.43	771.429
200.81	5700.000
201.18	1900.000
201.56	-2033.333
201.94	655.556
202.31	577.778
202.69	483.333
203.07	580.000
203.44	0.000
203.82	1725.000
204.19	857.143
204.57	400.000
204.95	775.000
205.32	1700.000
205.70	518.182
206.08	507.143
206.45	2550.000
206.83	375.000
207.20	950.000
207.58	1060.000
207.96	350.000
208.33	875.000
208.71	-1050.000
209.08	814.286
209.46	611.111
209.84	545.455
210.21	-1666.667
210.59	1575.000
210.96	-675.000
211.34	3200.000
211.71	660.000
212.09	833.333
212.46	0.000
212.84	1800.000
213.22	1400.000
213.59	-5800.000
213.97	900.000
214.34	957.143
214.72	709.091
215.09	1200.000
215.47	-2750.000
215.84	-2950.000
216.22	2066.667
216.59	442.857
216.97	1375.000
217.34	563.636
217.72	-966.667
218.09	0.000
218.47	-6400.000
218.84	711.111
219.22	757.143
219.59	2000.000
219.97	-728.571
220.34	1140.000
220.72	-2100.000
221.09	492.857
221.47	1625.000
221.84	-1166.667
222.22	0.000
222.59	1450.000
222.97	-2250.000
223.34	1420.000
223.72	515.385
224.09	1200.000
224.46	2650.000
224.84	-5600.000
225.21	-1500.000
225.59	-6100.000
225.96	660.000
226.34	325.000
226.71	3450.000
227.08	812.500
227.46	630.000
227.83	-1150.000
228.21	-2800.000
228.58	777.778
228.95	-3400.000
229.33	-2400.000
229.70	2033.333
230.08	885.714
230.45	-1060.000
230.82	458.333
231.20	950.000
231.57	800.000
231.95	466.667
232.32	327.273
232.69	500.000
233.07	700.000
233.44	338.462
233.81	-1766.667
234.19	331.579
234.56	450.000
234.93	466.667
235.31	554.545
235.68	361.538
236.05	371.429
236.43	209.091
236.80	284.211
237.17	5500.000
237.55	261.905
237.92	232.143
238.29	314.286
238.67	203.226
239.04	220.690
239.41	208.333
239.79	154.348
240.16	180.952
240.53	143.182
240.91	143.137
241.28	148.000
241.65	130.000
242.02	113.043
242.40	127.419
242.77	126.667
243.14	95.699
243.51	96.629
243.89	103.529
244.26	95.556
244.63	83.871
245.00	79.787
245.38	80.198
245.75	69.159
246.12	73.394
246.49	75.912
246.87	83.200
247.24	86.154
247.61	64.286
247.98	72.549
248.36	66.216
248.73	61.783
249.10	65.605
249.47	63.277
249.84	65.775
250.22	58.289
250.59	56.805
250.96	62.121
251.33	57.346
251.70	61.881
252.08	61.905
252.45	54.260
252.82	50.435
253.19	57.447
253.56	53.725
253.94	54.357
254.31	54.297
254.68	54.615
255.05	49.446
255.42	55.285
255.79	53.676
256.16	50.903
256.54	49.470
256.91	51.957
257.28	44.964
257.65	45.215
258.02	51.242
258.39	46.057
258.76	44.482
259.14	48.512
259.51	47.416
259.88	48.758
260.25	46.828
260.62	43.353
260.99	44.099
261.36	47.748
261.73	47.851
262.10	43.023
262.47	47.042
262.85	44.568
263.22	42.450
263.59	44.160
263.96	45.330
264.33	40.470
264.70	44.211
265.07	44.757
265.44	41.162
265.81	39.416
266.18	44.472
266.55	43.902
266.92	44.963
267.29	43.981
267.66	41.972
268.03	40.682
268.40	41.822
268.77	40.095
269.14	40.991
269.51	42.212
269.88	42.657
270.25	42.438
270.62	38.876
270.99	40.860
271.36	38.841
271.73	42.056
272.10	38.043
272.47	42.151
272.84	40.476
273.21	40.461
273.58	39.520
273.95	39.413
274.32	38.636
274.69	41.756
275.06	38.780
275.43	42.340
275.80	37.475
276.17	40.530
276.54	40.541
276.91	40.711
277.28	37.500
277.65	39.072
278.02	38.923
278.39	36.914
278.76	37.818
279.13	38.868
279.50	37.989
279.87	34.462
280.23	43.912
280.60	37.718
280.97	36.229
281.34	39.292
281.71	38.182
282.08	38.964
282.45	36.909
282.82	36.767
283.19	36.185
283.56	36.667
283.92	36.887
284.29	36.332
284.66	36.298
285.03	35.986
285.40	36.092
285.77	34.343
286.14	34.542
286.51	35.333
286.87	37.436
287.24	35.831
287.61	35.152
287.98	35.552
288.35	34.707
288.72	32.399
289.08	33.333
289.45	34.596
289.82	34.309
290.19	32.025
290.56	33.691
290.93	32.477
291.29	34.202
291.66	32.006
292.03	33.285
292.40	33.480
292.77	29.142
293.13	33.582
293.50	31.195
293.87	31.259
294.24	31.852
294.60	30.277
294.97	31.395
295.34	31.876
295.71	30.824
296.08	28.917
296.44	30.124
296.81	28.005
297.18	31.707
297.55	25.726
297.91	28.892
298.28	29.853
298.65	29.373
299.02	30.303
299.38	27.092
299.75	27.224
300.12	27.203
300.48	27.250
300.85	27.004
301.22	28.917
301.59	25.000
301.95	26.952
302.32	27.343
302.69	27.121
303.05	26.182
303.42	26.173
303.79	26.727
304.15	24.942
304.52	24.797
304.89	26.597
305.25	25.638
305.62	27.067
305.99	26.800
306.35	25.503
306.72	26.345
307.09	25.305
307.45	25.788
307.82	24.554
308.19	25.828
308.55	25.135
308.92	25.134
309.29	23.654
309.65	24.496
310.02	23.890
310.38	26.129
310.75	25.871
311.12	24.360
311.48	23.929
311.85	25.891
312.22	25.390
312.58	24.220
312.95	25.554
313.31	24.466
313.68	24.844
314.05	26.923
314.41	25.327
314.78	25.579
315.14	25.422
315.51	25.335
315.87	25.545
316.24	25.720
316.61	25.634
316.97	25.930
317.34	23.483
317.70	26.769
318.07	26.179
318.43	27.495
318.80	26.617
319.16	27.684
319.53	25.328
319.89	28.000
320.26	27.800
320.62	27.579
320.99	25.657
321.35	27.374
321.72	28.747
322.08	26.950
322.45	29.453
322.81	28.295
323.18	28.805
323.54	28.757
323.91	29.057
324.27	29.446
324.64	28.052
325.00	28.494
325.37	30.118
325.73	29.892
326.10	29.832
326.46	29.570
326.83	30.371
327.19	30.572
327.56	31.098
327.92	30.096
328.29	32.209
328.65	31.492
329.01	31.949
329.38	32.562
329.74	31.210
330.11	33.365
330.47	32.599
330.84	32.537
331.20	32.240
331.56	31.651
331.93	32.130
332.29	30.701
332.66	33.363
333.02	31.901
333.38	32.611
333.75	32.531
334.11	33.541
334.48	31.500
334.84	33.456
335.20	32.727
335.57	32.820
335.93	32.143
336.29	31.410
336.66	31.470
337.02	31.584
337.38	33.611
337.75	31.462
338.11	31.782
338.47	32.320
338.84	33.639
339.20	32.018
339.56	33.942
339.93	32.182
340.29	32.790
340.65	31.462
341.02	33.595
341.38	32.829
341.74	32.368
342.11	32.052
342.47	32.335
342.83	31.164
343.20	31.948
343.56	32.182
343.92	32.632
344.28	32.398
344.65	33.534
345.01	31.397
345.37	30.446
345.73	32.149
346.10	32.310
346.46	32.542
346.82	31.796
347.19	31.997
347.55	30.870
347.91	32.686
348.27	31.553
348.63	32.776
349.00	30.906
349.36	31.363
349.72	31.355
350.08	31.199
350.45	31.082
350.81	30.707
351.17	32.091
351.53	31.368
351.89	30.776
352.26	31.413
352.62	31.836
352.98	32.010
353.34	32.621
353.70	30.442
354.07	31.855
354.43	30.397
354.79	30.732
355.15	30.407
355.51	33.173
355.87	31.592
356.24	30.863
356.60	30.954
356.96	32.261
357.32	31.235
357.68	31.339
358.04	31.116
358.40	32.304
358.77	30.282
359.13	31.097
359.49	31.608
359.85	30.397
360.21	32.297
360.57	31.829
360.93	31.615
361.29	31.066
361.66	30.728
362.02	30.821
362.38	30.798
362.74	31.771
363.10	30.348
363.46	31.548
363.82	31.519
364.18	30.617
364.54	32.764
364.90	30.878
365.26	30.735
365.62	31.775
365.98	31.118
366.35	31.805
366.71	31.815
367.07	31.755
367.43	31.785
367.79	31.977
368.15	31.466
368.51	32.049
368.87	31.906
369.23	31.748
369.59	32.802
369.95	32.426
370.31	32.051
370.67	31.014
371.03	31.910
371.39	32.434
371.75	33.015
372.11	32.148
372.47	33.431
372.83	33.141
373.19	31.431
373.55	31.559
373.91	32.769
374.27	31.753
374.63	32.073
374.99	31.709
375.35	32.519
375.71	32.694
376.07	31.276
376.42	32.669
376.78	33.333
377.14	32.157
377.50	32.384
377.86	31.250
378.22	32.048
378.58	31.203
378.94	32.244
379.30	31.552
379.66	32.234
380.02	32.310
380.38	31.876
380.74	32.713
381.09	32.090
381.45	33.251
381.81	32.678
382.17	32.739
382.53	32.138
382.89	32.716
383.25	32.770
383.61	32.776
383.97	33.333
384.32	31.441
384.68	32.404
385.04	32.575
385.40	32.198
385.76	31.880
386.12	33.873
386.48	33.480
386.83	34.766
387.19	33.643
387.55	33.395
387.91	33.555
388.27	32.373
388.62	33.805
388.98	32.862
389.34	33.917
389.70	33.476
390.06	34.601
390.42	33.917
390.77	33.270
391.13	33.823
391.49	34.137
391.85	33.546
392.20	32.871
392.56	32.955
392.92	33.843
393.28	33.314
393.64	34.412
393.99	34.331
394.35	33.127
394.71	33.061
395.07	32.773
395.42	34.054
395.78	34.733
396.14	34.823
396.50	35.213
396.85	35.346
397.21	34.032
397.57	34.780
397.92	33.654
398.28	33.520
398.64	35.783
399.00	34.807
399.35	34.179
399.71	35.069
400.07	34.063
400.42	35.031
400.78	35.283
401.14	35.183
401.49	34.925
401.85	34.543
402.21	34.731
402.57	34.608
402.92	35.372
403.28	35.978
403.63	34.963
403.99	35.096
404.35	34.121
404.70	35.791
405.06	35.469
405.42	35.745
405.77	34.571
406.13	34.142
406.49	34.891
406.84	34.259
407.20	34.870
407.55	35.865
407.91	36.533
408.27	35.290
408.62	35.039
408.98	35.172
409.34	35.732
409.69	36.258
410.05	35.130
410.40	35.657
410.76	35.962
411.11	35.525
411.47	35.335
411.83	35.797
412.18	35.374
412.54	36.488
412.89	36.084
413.25	35.065
413.60	36.319
413.96	35.519
414.31	35.662
414.67	37.009
415.03	36.424
415.38	36.598
415.74	36.592
416.09	36.773
416.45	37.216
416.80	37.409
417.16	36.595
417.51	36.629
417.87	36.673
418.22	37.161
418.58	37.573
418.93	37.039
419.29	36.919
419.64	36.839
420.00	36.829
420.35	37.391
420.71	37.179
421.06	37.291
421.42	37.485
421.77	37.612
422.12	36.946
422.48	36.589
422.83	37.857
423.19	36.740
423.54	36.564
423.90	37.623
424.25	37.409
424.61	36.845
424.96	38.659
425.31	37.929
425.67	36.292
426.02	36.343
426.38	39.438
426.73	37.683
427.09	37.994
427.44	37.378
427.79	38.643
428.15	37.679
428.50	37.683
428.85	38.915
429.21	38.377
429.56	37.895
429.92	37.695
430.27	37.488
430.62	37.276
430.98	37.727
431.33	37.577
431.68	38.429
432.04	38.818
432.39	39.692
432.74	39.138
433.10	39.219
433.45	38.776
433.80	38.359
434.16	38.034
434.51	37.526
434.86	38.426
435.22	38.911
435.57	39.088
435.92	39.029
436.28	39.265
436.63	39.625
436.98	39.782
437.34	38.760
437.69	39.265
438.04	39.404
438.39	39.284
438.75	38.931
439.10	39.777
439.45	39.315
439.81	39.396
440.16	39.187
440.51	40.305
440.86	39.606
441.22	38.821
441.57	39.968
441.92	41.044
442.27	40.527
442.63	39.389
442.98	41.408
443.33	39.565
443.68	39.184
444.03	39.580
444.39	38.997
444.74	39.556
445.09	39.030
445.44	39.420
445.79	39.386
446.15	38.857
446.50	40.388
446.85	39.928
447.20	40.184
447.55	40.983
447.91	40.044
448.26	39.733
448.61	39.457
448.96	40.753
449.31	40.551
449.66	40.405
450.02	39.164
450.37	39.739
450.72	39.932
451.07	40.158
451.42	40.608
451.77	40.223
452.12	39.550
452.47	39.739
452.83	41.200
453.18	41.015
453.53	40.754
453.88	40.874
454.23	40.765
454.58	40.400
454.93	41.195
455.28	39.900
455.63	41.323
455.98	42.024
456.34	41.018
456.69	41.327
457.04	41.362
457.39	39.509
457.74	40.859
458.09	40.713
458.44	40.992
458.79	39.100
459.14	40.632
459.49	40.747
459.84	40.942
460.19	39.776
460.54	40.162
460.89	40.099
461.24	41.105
461.59	41.313
461.94	40.321
462.29	40.772
462.64	40.587
462.99	39.558
463.34	41.867
463.69	41.151
464.04	40.696
464.39	40.812
464.74	41.592
465.09	39.867
465.44	39.668
465.79	38.758
466.14	40.066
466.49	39.488
466.84	41.097
467.19	40.072
467.54	41.562
467.89	40.096
468.24	41.187
468.59	41.087
468.94	39.035
469.29	41.324
469.64	42.436
469.99	41.407
470.34	41.083
470.68	42.170
471.03	40.408
471.38	41.487
471.73	40.973
472.08	41.250
472.43	40.766
472.78	40.421
473.13	41.271
473.48	41.011
473.83	40.854
474.17	40.386
474.52	41.005
474.87	40.572
475.22	39.466
475.57	40.032
475.92	40.361
476.27	40.755
476.61	40.154
476.96	39.252
477.31	39.717
477.66	40.263
478.01	39.310
478.36	40.137
478.70	39.979
479.05	39.084
479.40	39.969
479.75	39.756
480.10	38.917
480.45	38.601
480.79	38.509
481.14	39.188
481.49	39.867
481.84	39.140
482.19	39.482
482.53	39.037
482.88	38.995
483.23	39.860
483.58	39.308
483.92	39.456
484.27	38.039
484.62	39.009
484.97	38.392
485.31	38.904
485.66	37.119
486.01	36.183
486.36	35.208
486.70	34.517
487.05	35.589
487.40	36.389
487.75	37.212
488.09	38.247
488.44	38.359
488.79	39.349
489.13	39.152
489.48	39.641
489.83	38.412
490.17	39.281
490.52	37.600
490.87	38.942
491.22	38.518
491.56	37.631
491.91	38.018
492.26	38.953
492.60	38.295
492.95	36.997
493.30	37.850
493.64	38.731
493.99	37.790
494.34	37.928
494.68	38.690
495.03	38.299
495.37	37.645
495.72	38.596
496.07	38.422
496.41	37.832
496.76	37.467
497.11	37.371
497.45	37.401
497.80	39.012
498.14	38.551
498.49	38.829
498.84	38.159
499.18	38.429
499.53	38.034
499.87	38.164
500.22	37.259
500.56	38.204
500.91	38.125
501.26	37.506
501.60	39.298
501.95	37.397
502.29	39.035
502.64	37.430
502.98	36.699
503.33	37.431
503.67	37.262
504.02	37.933
504.36	36.640
504.71	37.274
505.06	37.831
505.40	38.551
505.75	37.223
506.09	37.755
506.44	38.530
506.78	36.922
507.13	37.860
507.47	37.071
507.82	37.943
508.16	37.893
508.51	38.610
508.85	37.637
509.19	37.602
509.54	37.143
509.88	37.609
510.23	36.967
510.57	39.061
510.92	38.322
511.26	37.102
511.61	37.604
511.95	36.743
512.30	36.585
512.64	38.152
512.98	36.924
513.33	38.276
513.67	36.713
514.02	37.121
514.36	37.794
514.70	37.631
515.05	37.758
515.39	37.185
515.74	36.543
516.08	37.060
516.42	38.013
516.77	38.629
517.11	36.792
517.46	36.625
517.80	37.689
518.14	36.422
518.49	38.273
518.83	36.477
519.17	36.663
519.52	37.804
519.86	37.935
520.20	38.382
520.55	38.420
520.89	37.348
521.23	38.480
521.58	36.975
521.92	37.355
522.26	36.913
522.61	37.944
522.95	37.017
523.29	37.066
523.64	36.585
523.98	37.585
524.32	37.817
524.66	37.703
525.01	37.561
525.35	37.856
525.69	36.392
526.04	38.816
526.38	37.218
526.72	37.730
527.06	38.418
527.41	36.262
527.75	37.814
528.09	37.123
528.43	37.094
528.78	37.185
529.12	36.364
529.46	37.906
529.80	37.252
530.15	36.947
530.49	36.431
530.83	37.278
531.17	37.924
531.51	36.706
531.86	36.839
532.20	35.919
532.54	37.540
532.88	37.291
533.22	36.227
533.57	36.728
533.91	35.882
534.25	37.060
534.59	36.852
534.93	36.169
535.27	36.753
535.62	36.264
535.96	36.221
536.30	35.601
536.64	36.252
536.98	36.762
537.32	36.076
537.66	37.267
538.01	36.932
538.35	36.458
538.69	36.758
539.03	36.322
539.37	35.847
539.71	36.293
540.05	36.471
540.39	36.412
540.73	35.640
541.07	35.626
541.42	37.052
541.76	37.226
542.10	36.999
542.44	36.821
542.78	36.166
543.12	36.148
543.46	36.197
543.80	36.304
544.14	35.109
544.48	35.683
544.82	35.407
545.16	37.085
545.50	35.154
545.84	36.290
546.18	36.633
546.52	36.614
546.86	37.045
547.20	36.345
547.54	35.404
547.88	35.842
548.22	36.115
548.56	35.346
548.90	34.891
549.24	35.623
549.58	35.539
549.92	36.264
550.26	37.216
550.60	35.270
550.94	35.423
551.28	35.845
551.62	36.880
551.96	34.737
552.30	35.700
552.64	36.579
552.98	36.203
553.32	35.199
553.66	36.196
554.00	36.102
554.34	35.680
554.68	35.908
555.02	35.261
555.36	35.630
555.69	35.115
556.03	34.791
556.37	36.357
556.71	35.880
557.05	35.784
557.39	34.640
557.73	34.510
558.07	36.476
558.41	35.311
558.75	36.885
559.08	35.645
559.42	36.130
559.76	35.588
560.10	35.475
560.44	35.430
560.78	33.999
561.12	34.235
561.45	35.137
561.79	33.619
562.13	33.736
562.47	34.426
562.81	35.565
563.15	33.779
563.48	34.284
563.82	34.116
564.16	34.532
564.50	33.138
564.84	33.123
565.17	33.012
565.51	34.121
565.85	34.454
566.19	33.500
566.52	33.882
566.86	33.514
567.20	34.965
567.54	33.733
567.88	33.134
568.21	33.069
568.55	32.811
568.89	32.782
569.23	31.640
569.56	31.741
569.90	32.189
570.24	31.145
570.57	30.058
570.91	29.670
571.25	30.451
571.59	30.162
571.92	29.781
572.26	30.243
572.60	30.631
572.93	30.045
573.27	30.435
573.61	30.039
573.95	30.129
574.28	29.648
574.62	29.397
574.96	28.937
575.29	29.316
575.63	29.776
575.97	29.940
576.30	29.421
576.64	29.164
576.98	29.533
577.31	29.321
577.65	29.729
577.98	29.091
578.32	28.396
578.66	29.224
578.99	29.628
579.33	29.024
579.67	28.801
580.00	29.513
580.34	29.497
580.67	29.355
581.01	29.166
581.35	28.615
581.68	28.324
582.02	28.162
582.35	28.228
582.69	28.709
583.02	28.814
583.36	29.191
583.70	29.296
584.03	29.363
584.37	29.776
584.70	29.232
585.04	28.889
585.37	29.101
585.71	29.511
586.04	28.823
586.38	29.441
586.72	29.577
587.05	28.987
587.39	28.865
587.72	29.657
588.06	29.136
588.39	29.218
588.73	29.657
589.06	29.760
589.40	30.202
589.73	30.060
590.07	29.858
590.40	29.156
590.73	29.938
591.07	30.973
591.40	31.168
591.74	30.693
592.07	30.410
592.41	30.136
592.74	28.914
593.08	28.881
593.41	29.421
593.75	28.482
594.08	28.327
594.41	29.410
594.75	28.946
595.08	28.776
595.42	29.492
595.75	29.345
596.09	29.591
596.42	29.745
596.75	29.886
597.09	30.606
597.42	28.331
597.75	29.323
598.09	29.565
598.42	29.338
598.76	29.064
599.09	28.962
599.42	28.384
599.76	29.100
600.09	28.634
600.42	28.671
600.76	28.179
601.09	29.035
601.42	28.387
601.76	28.805
602.09	28.696
602.42	29.936
602.76	29.585
603.09	28.718
603.42	29.207
603.76	28.316
604.09	28.383
604.42	29.066
604.76	29.650
605.09	29.096
605.42	29.029
605.75	28.974
606.09	28.874
606.42	28.280
606.75	27.997
607.09	28.841
607.42	28.241
607.75	28.059
608.08	28.702
608.42	29.180
608.75	28.674
609.08	28.307
609.41	29.557
609.75	28.490
610.08	29.783
610.41	28.399
610.74	27.956
611.07	28.854
611.41	30.029
611.74	29.110
612.07	29.555
612.40	29.591
612.73	28.526
613.07	30.065
613.40	29.489
613.73	28.317
614.06	28.925
614.39	28.369
614.72	28.526
615.06	29.149
615.39	28.769
615.72	28.732
616.05	28.549
616.38	29.572
616.71	29.691
617.05	29.976
617.38	29.886
617.71	30.330
618.04	29.507
618.37	29.450
618.70	29.869
619.03	30.987
619.36	30.210
619.69	30.634
620.03	30.082
620.36	29.612
620.69	30.479
621.02	31.047
621.35	29.679
621.68	30.919
622.01	30.650
622.34	30.560
622.67	30.038
623.00	29.274
623.33	29.521
623.66	29.450
623.99	29.676
624.32	29.458
624.65	29.520
624.99	28.683
625.32	29.689
625.65	30.879
625.98	31.130
626.31	30.016
626.64	30.449
626.97	30.424
627.30	30.175
627.63	30.845
627.96	30.698
628.29	31.671
628.62	31.930
628.95	31.038
629.28	31.296
629.61	30.797
629.94	32.286
630.26	30.887
630.59	29.838
