SpectraSuite Data File
++++++++++++++++++++++++++++++++++++
Date: Wed May 13 19:30:32 PDT 2015
User: schluterlab
Dark Spectrum Present: Yes
Reference Spectrum Present: Yes
Number of Sampled Component Spectra: 1
Spectrometers: USB2E3373
Integration Time (usec): 3000 (USB2E3373)
Spectra Averaged: 3 (USB2E3373)
Boxcar Smoothing: 0 (USB2E3373)
Correct for Electrical Dark: No (USB2E3373)
Strobe/Lamp Enabled: No (USB2E3373)
Correct for Detector Non-linearity: No (USB2E3373)
Correct for Stray Light: No (USB2E3373)
Number of Pixels in Processed Spectrum: 2048
>>>>>Begin Processed Spectral Data<<<<<
178.53	0.000
178.91	-1500.000
179.29	-1150.000
179.67	-261.111
180.04	-1350.000
180.42	2950.000
180.80	1300.000
181.18	-1175.000
181.56	742.857
181.94	0.000
182.31	-771.429
182.69	1933.333
183.07	-600.000
183.45	-511.111
183.83	545.455
184.20	-410.000
184.58	2500.000
184.96	5900.000
185.34	-940.000
185.72	-537.500
186.09	-2250.000
186.47	2500.000
186.85	2550.000
187.23	5400.000
187.61	-1666.667
187.98	1475.000
188.36	536.364
188.74	527.273
189.12	-920.000
189.49	610.000
189.87	-5000.000
190.25	-1150.000
190.63	442.857
191.00	415.385
191.38	850.000
191.76	-1350.000
192.14	1500.000
192.51	650.000
192.89	1100.000
193.27	687.500
193.65	-1250.000
194.02	570.000
194.40	1040.000
194.78	570.000
195.15	608.333
195.53	620.000
195.91	-2300.000
196.29	368.750
196.66	352.632
197.04	-350.000
197.42	0.000
197.79	560.000
198.17	-4700.000
198.55	814.286
198.92	725.000
199.30	1040.000
199.68	0.000
200.05	383.333
200.43	885.714
200.81	4900.000
201.18	1933.333
201.56	-1733.333
201.94	600.000
202.31	566.667
202.69	491.667
203.07	570.000
203.44	0.000
203.82	1350.000
204.19	814.286
204.57	457.143
204.95	750.000
205.32	1466.667
205.70	545.455
206.08	385.714
206.45	2400.000
206.83	368.750
207.20	933.333
207.58	700.000
207.96	333.333
208.33	650.000
208.71	-883.333
209.08	857.143
209.46	577.778
209.84	500.000
210.21	-1933.333
210.59	1650.000
210.96	-575.000
211.34	2450.000
211.71	770.000
212.09	783.333
212.46	0.000
212.84	1766.667
213.22	1350.000
213.59	-4200.000
213.97	866.667
214.34	842.857
214.72	663.636
215.09	880.000
215.47	-2300.000
215.84	-2550.000
216.22	2033.333
216.59	478.571
216.97	1600.000
217.34	472.727
217.72	-750.000
218.09	0.000
218.47	-4500.000
218.84	711.111
219.22	714.286
219.59	1833.333
219.97	-728.571
220.34	1120.000
220.72	-1866.667
221.09	407.143
221.47	1400.000
221.84	-1066.667
222.22	0.000
222.59	1350.000
222.97	-2450.000
223.34	1240.000
223.72	392.308
224.09	1080.000
224.46	2650.000
224.84	-4700.000
225.21	-1080.000
225.59	-5100.000
225.96	640.000
226.34	360.000
226.71	2800.000
227.08	687.500
227.46	660.000
227.83	-1300.000
228.21	-1900.000
228.58	666.667
228.95	-2800.000
229.33	-2350.000
229.70	1900.000
230.08	871.429
230.45	-920.000
230.82	508.333
231.20	850.000
231.57	700.000
231.95	500.000
232.32	281.818
232.69	463.636
233.07	700.000
233.44	400.000
233.81	-2066.667
234.19	300.000
234.56	500.000
234.93	408.333
235.31	490.909
235.68	376.923
236.05	342.857
236.43	230.303
236.80	305.263
237.17	3500.000
237.55	247.619
237.92	228.571
238.29	261.905
238.67	187.097
239.04	217.241
239.41	158.333
239.79	134.783
240.16	152.381
240.53	150.000
240.91	125.490
241.28	130.000
241.65	114.000
242.02	107.246
242.40	90.323
242.77	110.000
243.14	84.946
243.51	89.888
243.89	94.118
244.26	80.000
244.63	90.323
245.00	81.915
245.38	92.079
245.75	67.290
246.12	60.550
246.49	75.912
246.87	65.600
247.24	68.462
247.61	65.000
247.98	65.359
248.36	60.811
248.73	61.783
249.10	64.331
249.47	59.322
249.84	60.428
250.22	49.733
250.59	55.030
250.96	62.626
251.33	54.028
251.70	53.465
252.08	50.952
252.45	53.363
252.82	50.435
253.19	52.340
253.56	50.196
253.94	50.622
254.31	44.922
254.68	48.462
255.05	48.339
255.42	43.089
255.79	49.632
256.16	50.903
256.54	46.290
256.91	50.534
257.28	46.043
257.65	44.554
258.02	44.410
258.39	43.533
258.76	42.140
259.14	45.833
259.51	40.426
259.88	40.373
260.25	47.734
260.62	41.040
260.99	43.168
261.36	42.342
261.73	43.553
262.10	43.605
262.47	44.507
262.85	40.947
263.22	35.897
263.59	42.450
263.96	40.659
264.33	38.642
264.70	40.526
265.07	42.711
265.44	41.162
265.81	38.686
266.18	41.206
266.55	39.268
266.92	40.295
267.29	38.889
267.66	37.615
268.03	38.636
268.40	38.551
268.77	36.516
269.14	36.712
269.51	40.632
269.88	40.793
270.25	40.181
270.62	37.753
270.99	38.710
271.36	36.052
271.73	41.355
272.10	37.609
272.47	36.129
272.84	34.848
273.21	36.688
273.58	37.555
273.95	35.849
274.32	33.264
274.69	34.261
275.06	35.433
275.43	36.383
275.80	34.068
276.17	36.049
276.54	37.214
276.91	37.154
277.28	34.570
277.65	34.816
278.02	34.783
278.39	33.594
278.76	34.000
279.13	33.396
279.50	34.078
279.87	33.466
280.23	35.529
280.60	33.075
280.97	33.641
281.34	35.221
281.71	34.545
282.08	32.630
282.45	32.364
282.82	33.925
283.19	33.690
283.56	31.754
283.92	33.672
284.29	31.570
284.66	34.301
285.03	33.092
285.40	33.627
285.77	31.818
286.14	31.261
286.51	32.833
286.87	32.479
287.24	31.596
287.61	32.103
287.98	31.656
288.35	32.171
288.72	31.153
289.08	30.360
289.45	29.654
289.82	30.894
290.19	28.728
290.56	29.709
290.93	29.758
291.29	29.448
291.66	29.204
292.03	29.215
292.40	30.837
292.77	28.846
293.13	28.955
293.50	30.612
293.87	27.704
294.24	28.741
294.60	25.182
294.97	26.599
295.34	29.196
295.71	28.409
296.08	25.783
296.44	26.410
296.81	24.703
297.18	28.184
297.55	25.462
297.91	27.177
298.28	26.640
298.65	28.198
299.02	26.350
299.38	25.232
299.75	25.876
300.12	25.415
300.48	24.500
300.85	24.538
301.22	25.605
301.59	25.379
301.95	24.685
302.32	24.519
302.69	25.687
303.05	24.121
303.42	24.691
303.79	24.689
304.15	23.427
304.52	21.553
304.89	23.810
305.25	23.086
305.62	26.501
305.99	23.140
306.35	24.497
306.72	23.879
307.09	23.751
307.45	25.563
307.82	23.661
308.19	25.386
308.55	24.703
308.92	24.382
309.29	23.442
309.65	23.224
310.02	24.524
310.38	23.548
310.75	24.604
311.12	25.179
311.48	23.824
311.85	25.891
312.22	24.766
312.58	23.701
312.95	25.871
313.31	24.466
313.68	25.780
314.05	26.134
314.41	24.824
314.78	26.385
315.14	24.926
315.51	24.717
315.87	26.733
316.24	26.912
316.61	26.803
316.97	25.930
317.34	25.049
317.70	26.291
318.07	26.083
318.43	26.027
318.80	27.648
319.16	28.060
319.53	25.704
319.89	28.095
320.26	28.200
320.62	27.480
320.99	28.889
321.35	27.475
321.72	28.953
322.08	28.529
322.45	30.846
322.81	28.973
323.18	27.842
323.54	29.406
323.91	28.679
324.27	30.115
324.64	28.145
325.00	28.945
325.37	30.846
325.73	31.418
326.10	30.627
326.46	29.839
326.83	30.544
327.19	29.974
327.56	31.098
327.92	31.584
328.29	31.233
328.65	31.584
329.01	31.137
329.38	32.192
329.74	33.056
330.11	32.045
330.47	32.691
330.84	31.618
331.20	31.967
331.56	31.284
331.93	32.593
332.29	31.766
332.66	33.009
333.02	33.364
333.38	33.333
333.75	32.086
334.11	32.295
334.48	30.878
334.84	31.618
335.20	32.636
335.57	32.004
335.93	30.893
336.29	30.952
336.66	31.199
337.02	30.950
337.38	32.963
337.75	30.481
338.11	30.976
338.47	31.676
338.84	31.989
339.20	31.009
339.56	32.938
339.93	31.455
340.29	32.065
340.65	31.373
341.02	32.548
341.38	32.028
341.74	30.702
342.11	32.140
342.47	32.952
342.83	32.363
343.20	32.554
343.56	30.918
343.92	31.579
344.28	32.143
344.65	32.846
345.01	31.229
345.37	31.046
345.73	31.641
346.10	31.714
346.46	31.780
346.82	31.301
347.19	31.245
347.55	31.363
347.91	31.958
348.27	32.621
348.63	32.358
349.00	31.553
349.36	31.445
349.72	30.874
350.08	31.280
350.45	32.710
350.81	31.763
351.17	31.686
351.53	33.251
351.89	31.931
352.26	32.439
352.62	32.077
352.98	31.199
353.34	31.306
353.70	31.342
354.07	31.774
354.43	30.476
354.79	30.410
355.15	31.684
355.51	33.573
355.87	32.408
356.24	32.003
356.60	30.714
356.96	32.341
357.32	30.989
357.68	31.969
358.04	31.671
358.40	31.116
358.77	31.064
359.13	31.176
359.49	31.765
359.85	31.746
360.21	31.978
360.57	32.607
360.93	32.000
361.29	29.705
361.66	31.502
362.02	32.239
362.38	32.015
362.74	32.366
363.10	30.718
363.46	30.741
363.82	31.519
364.18	30.617
364.54	32.021
364.90	32.011
365.26	31.324
365.62	32.213
365.98	31.848
366.35	30.587
366.71	32.610
367.07	31.318
367.43	32.148
367.79	31.620
368.15	33.190
368.51	31.468
368.87	33.833
369.23	31.895
369.59	31.789
369.95	32.206
370.31	32.051
370.67	31.594
371.03	31.985
371.39	30.977
371.75	32.059
372.11	32.077
372.47	32.331
372.83	32.709
373.19	30.925
373.55	32.594
373.91	33.505
374.27	31.615
374.63	32.145
374.99	32.627
375.35	31.821
375.71	32.077
376.07	32.990
376.42	32.187
376.78	32.604
377.14	33.175
377.50	32.715
377.86	31.981
378.22	33.123
378.58	31.516
378.94	31.804
379.30	31.489
379.66	32.805
380.02	32.432
380.38	30.540
380.74	33.253
381.09	33.007
381.45	33.805
381.81	32.494
382.17	33.758
382.53	33.711
382.89	33.827
383.25	32.958
383.61	34.139
383.97	33.146
384.32	33.125
384.68	32.280
385.04	33.313
385.40	32.755
385.76	33.907
386.12	33.808
386.48	33.984
386.83	34.766
387.19	34.385
387.55	33.952
387.91	33.374
388.27	33.415
388.62	34.726
388.98	33.170
389.34	35.106
389.70	34.335
390.06	35.234
390.42	35.473
390.77	33.206
391.13	34.971
391.49	34.898
391.85	35.837
392.20	34.511
392.56	34.533
392.92	34.667
393.28	33.964
393.64	35.072
393.99	34.820
394.35	35.112
394.71	35.069
395.07	34.517
395.42	34.858
395.78	34.987
396.14	35.009
396.50	37.531
396.85	36.618
397.21	35.573
397.57	35.586
397.92	35.998
398.28	35.594
398.64	35.962
399.00	35.087
399.35	35.477
399.71	35.648
400.07	36.606
400.42	36.564
400.78	36.972
401.14	37.134
401.49	36.597
401.85	35.995
402.21	36.826
402.57	36.582
402.92	36.948
403.28	37.414
403.63	37.191
403.99	37.134
404.35	37.515
404.70	36.451
405.06	36.692
405.42	37.492
405.77	37.429
406.13	37.810
406.49	37.079
406.84	36.621
407.20	37.648
407.55	38.800
407.91	37.733
408.27	38.609
408.62	38.892
408.98	38.358
409.34	38.192
409.69	39.226
410.05	39.095
410.40	38.593
410.76	37.575
411.11	39.264
411.47	38.722
411.83	39.462
412.18	39.023
412.54	39.788
412.89	38.614
413.25	39.551
413.60	40.148
413.96	39.709
414.31	39.915
414.67	39.670
415.03	40.861
415.38	39.433
415.74	40.579
416.09	41.019
416.45	40.495
416.80	39.590
417.16	41.153
417.51	41.009
417.87	39.756
418.22	40.946
418.58	41.575
418.93	41.708
419.29	40.993
419.64	40.176
420.00	40.610
420.35	41.217
420.71	41.363
421.06	40.155
421.42	40.409
421.77	41.087
422.12	39.921
422.48	40.961
422.83	41.235
423.19	41.768
423.54	41.788
423.90	40.986
424.25	41.429
424.61	41.071
424.96	42.682
425.31	41.750
425.67	41.124
426.02	41.543
426.38	42.308
426.73	40.784
427.09	42.614
427.44	42.898
427.79	41.921
428.15	41.905
428.50	42.422
428.85	43.027
429.21	42.076
429.56	41.524
429.92	41.721
430.27	42.056
430.62	41.321
430.98	41.515
431.33	41.701
431.68	42.356
432.04	42.173
432.39	42.890
432.74	42.729
433.10	43.633
433.45	43.615
433.80	42.738
434.16	42.949
434.51	40.632
434.86	42.474
435.22	43.079
435.57	42.796
435.92	43.125
436.28	43.594
436.63	41.943
436.98	42.873
437.34	43.292
437.69	43.641
438.04	42.777
438.39	43.940
438.75	42.650
439.10	43.855
439.45	43.447
439.81	43.988
440.16	42.518
440.51	43.351
440.86	44.296
441.22	43.548
441.57	43.259
441.92	43.398
442.27	42.949
442.63	42.917
442.98	44.000
443.33	43.913
443.68	43.934
444.03	42.899
444.39	43.330
444.74	43.777
445.09	43.558
445.44	42.865
445.79	43.246
446.15	43.145
446.50	43.188
446.85	43.114
447.20	42.631
447.55	43.384
447.91	43.464
448.26	43.962
448.61	45.223
448.96	44.297
449.31	44.319
449.66	43.894
450.02	44.457
450.37	43.594
450.72	43.993
451.07	43.327
451.42	43.769
451.77	45.332
452.12	43.476
452.47	44.216
452.83	44.406
453.18	44.010
453.53	44.712
453.88	43.591
454.23	44.650
454.58	44.640
454.93	45.518
455.28	44.015
455.63	45.328
455.98	45.655
456.34	45.603
456.69	45.585
457.04	46.130
457.39	44.243
457.74	44.748
458.09	44.163
458.44	44.812
458.79	43.221
459.14	45.485
459.49	45.593
459.84	43.158
460.19	43.960
460.54	43.924
460.89	44.761
461.24	46.266
461.59	45.322
461.94	45.006
462.29	44.748
462.64	45.054
462.99	43.917
463.34	44.400
463.69	45.403
464.04	45.275
464.39	45.043
464.74	44.266
465.09	44.451
465.44	44.488
465.79	43.904
466.14	44.116
466.49	43.604
466.84	44.133
467.19	44.780
467.54	44.875
467.89	44.418
468.24	44.386
468.59	44.872
468.94	43.739
469.29	44.730
469.64	46.787
469.99	46.211
470.34	44.914
470.68	47.342
471.03	45.102
471.38	46.838
471.73	45.503
472.08	46.579
472.43	46.043
472.78	45.556
473.13	45.571
473.48	45.256
473.83	45.488
474.17	44.680
474.52	46.154
474.87	45.768
475.22	45.212
475.57	42.934
475.92	44.344
476.27	44.307
476.61	44.402
476.96	45.739
477.31	45.160
477.66	45.569
478.01	44.119
478.36	44.051
478.70	43.614
479.05	44.941
479.40	45.855
479.75	46.060
480.10	44.732
480.45	44.074
480.79	43.192
481.14	44.667
481.49	44.234
481.84	43.850
482.19	44.071
482.53	43.945
482.88	43.229
483.23	44.299
483.58	44.086
483.92	44.705
484.27	42.440
484.62	43.448
484.97	43.279
485.31	43.699
485.66	41.372
486.01	39.296
486.36	38.833
486.70	38.635
487.05	38.994
487.40	40.909
487.75	41.895
488.09	42.493
488.44	42.128
488.79	43.906
489.13	43.812
489.48	44.168
489.83	43.720
490.17	43.884
490.52	43.933
490.87	43.826
491.22	44.384
491.56	44.419
491.91	43.834
492.26	43.776
492.60	44.793
492.95	42.984
493.30	43.551
493.64	43.677
493.99	42.665
494.34	44.126
494.68	44.185
495.03	44.220
495.37	43.416
495.72	44.298
496.07	43.852
496.41	42.920
496.76	43.712
497.11	43.584
497.45	43.596
497.80	43.522
498.14	43.382
498.49	44.683
498.84	44.295
499.18	43.571
499.53	44.017
499.87	44.082
500.22	43.099
500.56	44.854
500.91	43.990
501.26	43.623
501.60	44.423
501.95	43.217
502.29	44.939
502.64	44.227
502.98	43.712
503.33	42.687
503.67	43.759
504.02	43.779
504.36	43.285
504.71	44.406
505.06	43.855
505.40	44.482
505.75	44.359
506.09	44.315
506.44	43.957
506.78	43.887
507.13	43.513
507.47	44.899
507.82	44.276
508.16	44.428
508.51	45.053
508.85	43.247
509.19	43.316
509.54	44.082
509.88	44.152
510.23	44.473
510.57	45.408
510.92	44.640
511.26	43.474
511.61	44.865
511.95	43.841
512.30	44.698
512.64	44.922
512.98	44.748
513.33	44.861
513.67	45.037
514.02	43.452
514.36	44.894
514.70	43.719
515.05	44.730
515.39	44.756
515.74	44.257
516.08	45.612
516.42	46.226
516.77	44.426
517.11	44.950
517.46	44.187
517.80	45.877
518.14	43.717
518.49	45.274
518.83	44.943
519.17	44.746
519.52	44.426
519.86	45.408
520.20	45.665
520.55	46.379
520.89	46.107
521.23	46.019
521.58	44.478
521.92	44.519
522.26	45.027
522.61	47.040
522.95	45.549
523.29	45.344
523.64	45.793
523.98	45.779
524.32	45.537
524.66	45.701
525.01	45.956
525.35	45.105
525.69	44.828
526.04	44.922
526.38	44.905
526.72	44.233
527.06	45.072
527.41	44.864
527.75	46.624
528.09	46.179
528.43	45.889
528.78	46.281
529.12	44.121
529.46	46.479
529.80	44.926
530.15	45.171
530.49	44.308
530.83	45.253
531.17	46.084
531.51	46.498
531.86	45.484
532.20	46.154
532.54	46.252
532.88	46.085
533.22	45.846
533.57	44.444
533.91	43.648
534.25	43.682
534.59	44.417
534.93	44.676
535.27	43.935
535.62	45.482
535.96	44.570
536.30	45.073
536.64	44.173
536.98	44.592
537.32	44.174
537.66	44.733
538.01	45.293
538.35	44.796
538.69	45.565
539.03	43.275
539.37	43.578
539.71	43.876
540.05	44.837
540.39	45.050
540.73	44.179
541.07	43.933
541.42	45.140
541.76	43.742
542.10	45.084
542.44	45.563
542.78	44.664
543.12	42.546
543.46	44.787
543.80	44.567
544.14	41.977
544.48	44.571
544.82	44.003
545.16	44.632
545.50	44.087
545.84	44.019
546.18	44.108
546.52	44.529
546.86	45.292
547.20	44.909
547.54	44.489
547.88	43.559
548.22	43.337
548.56	43.648
548.90	43.150
549.24	44.916
549.58	43.724
549.92	44.712
550.26	43.750
550.60	43.707
550.94	43.239
551.28	44.550
551.62	43.925
551.96	43.719
552.30	44.096
552.64	43.475
552.98	42.915
553.32	42.481
553.66	44.240
554.00	43.857
554.34	43.478
554.68	43.133
555.02	43.583
555.36	43.911
555.69	42.422
556.03	43.271
556.37	44.407
556.71	42.838
557.05	42.717
557.39	43.597
557.73	43.896
558.07	43.945
558.41	42.547
558.75	44.820
559.08	43.624
559.42	44.293
559.76	44.044
560.10	43.754
560.44	43.746
560.78	41.317
561.12	42.744
561.45	42.373
561.79	42.584
562.13	42.388
562.47	43.306
562.81	44.142
563.15	43.077
563.48	42.042
563.82	42.270
564.16	42.577
564.50	42.448
564.84	40.961
565.17	41.699
565.51	40.895
565.85	41.751
566.19	41.014
566.52	42.305
566.86	40.868
567.20	41.450
567.54	40.982
567.88	40.847
568.21	40.106
568.55	39.838
568.89	39.397
569.23	37.478
569.56	38.340
569.90	37.509
570.24	37.029
570.57	36.960
570.91	36.070
571.25	35.701
571.59	35.965
571.92	35.513
572.26	36.193
572.60	35.946
572.93	35.832
573.27	35.640
573.61	35.790
573.95	35.891
574.28	35.302
574.62	34.742
574.96	34.409
575.29	34.336
575.63	34.553
575.97	34.861
576.30	35.130
576.64	34.875
576.98	34.298
577.31	34.473
577.65	34.180
577.98	34.218
578.32	33.459
578.66	34.172
578.99	33.965
579.33	34.326
579.67	33.933
580.00	34.188
580.34	34.196
580.67	34.342
581.01	34.428
581.35	34.097
581.68	33.216
582.02	32.814
582.35	32.984
582.69	33.352
583.02	33.647
583.36	33.641
583.70	34.515
584.03	34.195
584.37	34.967
584.70	34.457
585.04	33.659
585.37	33.877
585.71	33.529
586.04	33.728
586.38	34.848
586.72	34.410
587.05	34.067
587.39	33.377
587.72	33.883
588.06	33.965
588.39	34.102
588.73	34.262
589.06	34.995
589.40	34.781
589.73	34.636
590.07	35.231
590.40	34.454
590.73	35.363
591.07	36.264
591.40	35.386
591.74	35.584
592.07	36.300
592.41	35.883
592.74	34.157
593.08	33.511
593.41	33.850
593.75	33.292
594.08	33.624
594.41	34.924
594.75	34.972
595.08	34.037
595.42	34.676
595.75	33.903
596.09	34.923
596.42	35.128
596.75	34.529
597.09	35.325
597.42	34.401
597.75	35.403
598.09	35.435
598.42	35.395
598.76	34.212
599.09	33.523
599.42	33.297
599.76	33.785
600.09	33.188
600.42	33.893
600.76	32.786
601.09	32.714
601.42	33.828
601.76	34.004
602.09	34.111
602.42	33.838
602.76	34.381
603.09	33.753
603.42	34.518
603.76	33.003
604.09	34.316
604.42	33.999
604.76	35.302
605.09	33.770
605.42	33.946
605.75	33.320
606.09	33.306
606.42	34.083
606.75	33.637
607.09	33.445
607.42	33.590
607.75	32.827
608.08	33.391
608.42	33.572
608.75	34.085
609.08	32.701
609.41	33.603
609.75	34.350
610.08	34.684
610.41	34.125
610.74	34.153
611.07	34.881
611.41	34.298
611.74	34.490
612.07	34.472
612.40	34.995
612.73	33.474
613.07	35.291
613.40	35.018
613.73	33.193
614.06	34.785
614.39	33.456
614.72	34.105
615.06	33.403
615.39	33.864
615.72	32.924
616.05	33.865
616.38	33.741
616.71	34.145
617.05	34.629
617.38	33.794
617.71	34.535
618.04	36.058
618.37	33.530
618.70	34.723
619.03	36.382
619.36	35.709
619.69	35.493
620.03	35.096
620.36	36.698
620.69	36.507
621.02	35.619
621.35	35.552
621.68	35.514
622.01	35.604
622.34	36.157
622.67	35.741
623.00	34.556
623.33	36.097
623.66	36.240
623.99	35.714
624.32	34.593
624.65	33.898
624.99	34.561
625.32	35.409
625.65	35.612
625.98	36.741
626.31	36.858
626.64	36.980
626.97	37.157
627.30	36.991
627.63	36.751
627.96	37.090
628.29	37.183
628.62	38.609
628.95	38.208
629.28	36.770
629.61	37.672
629.94	38.571
630.26	37.560
630.59	36.511
