SpectraSuite Data File
++++++++++++++++++++++++++++++++++++
Date: Wed May 13 19:55:20 PDT 2015
User: schluterlab
Dark Spectrum Present: Yes
Reference Spectrum Present: Yes
Number of Sampled Component Spectra: 1
Spectrometers: USB2E3373
Integration Time (usec): 3000 (USB2E3373)
Spectra Averaged: 3 (USB2E3373)
Boxcar Smoothing: 0 (USB2E3373)
Correct for Electrical Dark: No (USB2E3373)
Strobe/Lamp Enabled: No (USB2E3373)
Correct for Detector Non-linearity: No (USB2E3373)
Correct for Stray Light: No (USB2E3373)
Number of Pixels in Processed Spectrum: 2048
>>>>>Begin Processed Spectral Data<<<<<
178.53	0.000
178.91	-1300.000
179.29	-1525.000
179.67	-250.000
180.04	-1325.000
180.42	2950.000
180.80	1120.000
181.18	-1250.000
181.56	628.571
181.94	0.000
182.31	-842.857
182.69	2000.000
183.07	-587.500
183.45	-444.444
183.83	600.000
184.20	-450.000
184.58	2550.000
184.96	5200.000
185.34	-1000.000
185.72	-662.500
186.09	-2200.000
186.47	2850.000
186.85	2600.000
187.23	4400.000
187.61	-1933.333
187.98	1200.000
188.36	518.182
188.74	572.727
189.12	-860.000
189.49	620.000
189.87	-4900.000
190.25	-1150.000
190.63	442.857
191.00	430.769
191.38	833.333
191.76	-1225.000
192.14	1450.000
192.51	700.000
192.89	966.667
193.27	650.000
193.65	-1225.000
194.02	500.000
194.40	1040.000
194.78	570.000
195.15	608.333
195.53	650.000
195.91	-2200.000
196.29	387.500
196.66	352.632
197.04	-400.000
197.42	0.000
197.79	560.000
198.17	-3700.000
198.55	700.000
198.92	612.500
199.30	1040.000
199.68	0.000
200.05	311.111
200.43	857.143
200.81	4100.000
201.18	2033.333
201.56	-1733.333
201.94	522.222
202.31	588.889
202.69	433.333
203.07	580.000
203.44	0.000
203.82	1200.000
204.19	814.286
204.57	478.571
204.95	675.000
205.32	1533.333
205.70	563.636
206.08	471.429
206.45	2700.000
206.83	325.000
207.20	966.667
207.58	780.000
207.96	344.444
208.33	687.500
208.71	-850.000
209.08	900.000
209.46	677.778
209.84	436.364
210.21	-1533.333
210.59	1400.000
210.96	-562.500
211.34	2100.000
211.71	520.000
212.09	716.667
212.46	0.000
212.84	1666.667
213.22	1175.000
213.59	-4400.000
213.97	816.667
214.34	785.714
214.72	463.636
215.09	880.000
215.47	-2050.000
215.84	-2850.000
216.22	1800.000
216.59	464.286
216.97	1125.000
217.34	536.364
217.72	-683.333
218.09	0.000
218.47	-4200.000
218.84	677.778
219.22	742.857
219.59	1366.667
219.97	-657.143
220.34	820.000
220.72	-1633.333
221.09	400.000
221.47	1575.000
221.84	-1000.000
222.22	0.000
222.59	1525.000
222.97	-2000.000
223.34	1140.000
223.72	438.462
224.09	1220.000
224.46	2000.000
224.84	-4600.000
225.21	-920.000
225.59	-4600.000
225.96	720.000
226.34	295.000
226.71	2450.000
227.08	687.500
227.46	610.000
227.83	-1150.000
228.21	-2550.000
228.58	633.333
228.95	-2350.000
229.33	-2250.000
229.70	1766.667
230.08	771.429
230.45	-800.000
230.82	450.000
231.20	783.333
231.57	600.000
231.95	441.667
232.32	286.364
232.69	463.636
233.07	671.429
233.44	369.231
233.81	-1933.333
234.19	284.211
234.56	508.333
234.93	425.000
235.31	418.182
235.68	376.923
236.05	307.143
236.43	160.606
236.80	247.368
237.17	3800.000
237.55	261.905
237.92	203.571
238.29	266.667
238.67	132.258
239.04	172.414
239.41	138.889
239.79	121.739
240.16	114.286
240.53	129.545
240.91	105.882
241.28	90.000
241.65	92.000
242.02	94.203
242.40	79.032
242.77	90.000
243.14	65.591
243.51	65.169
243.89	61.176
244.26	53.333
244.63	55.914
245.00	47.872
245.38	44.554
245.75	47.664
246.12	38.532
246.49	52.555
246.87	37.600
247.24	46.154
247.61	39.286
247.98	47.059
248.36	30.405
248.73	33.121
249.10	42.038
249.47	32.203
249.84	37.433
250.22	31.551
250.59	30.178
250.96	28.788
251.33	28.436
251.70	33.168
252.08	29.524
252.45	28.700
252.82	23.913
253.19	29.362
253.56	23.529
253.94	26.556
254.31	26.953
254.68	27.308
255.05	26.937
255.42	23.577
255.79	20.956
256.16	24.910
256.54	21.201
256.91	23.488
257.28	20.144
257.65	20.462
258.02	20.807
258.39	20.820
258.76	21.405
259.14	21.726
259.51	18.237
259.88	16.149
260.25	22.054
260.62	19.364
260.99	16.460
261.36	17.417
261.73	15.186
262.10	17.733
262.47	18.028
262.85	16.156
263.22	13.105
263.59	18.519
263.96	16.758
264.33	18.538
264.70	15.789
265.07	15.601
265.44	14.899
265.81	16.302
266.18	16.332
266.55	17.073
266.92	15.725
267.29	16.435
267.66	15.367
268.03	14.773
268.40	13.318
268.77	13.842
269.14	15.766
269.51	13.318
269.88	16.550
270.25	14.221
270.62	14.157
270.99	17.634
271.36	14.163
271.73	11.916
272.10	11.087
272.47	15.484
272.84	16.450
273.21	18.029
273.58	12.445
273.95	11.321
274.32	13.636
274.69	13.704
275.06	14.764
275.43	12.340
275.80	13.427
276.17	11.202
276.54	12.474
276.91	13.439
277.28	11.523
277.65	12.766
278.02	13.043
278.39	14.258
278.76	13.636
279.13	12.264
279.50	11.546
279.87	14.343
280.23	11.577
280.60	12.573
280.97	13.494
281.34	13.628
281.71	12.727
282.08	12.860
282.45	12.909
282.82	12.078
283.19	9.626
283.56	12.456
283.92	12.521
284.29	10.582
284.66	12.886
285.03	10.307
285.40	11.268
285.77	11.448
286.14	11.744
286.51	12.833
286.87	12.991
287.24	11.238
287.61	10.754
287.98	12.013
288.35	11.410
288.72	11.371
289.08	12.520
289.45	9.720
289.82	11.707
290.19	10.832
290.56	11.792
290.93	9.366
291.29	10.583
291.66	10.177
292.03	14.535
292.40	12.922
292.77	12.130
293.13	11.493
293.50	10.350
293.87	10.370
294.24	10.222
294.60	9.025
294.97	10.320
295.34	11.142
295.71	11.932
296.08	9.544
296.44	10.041
296.81	11.096
297.18	11.789
297.55	8.179
297.91	9.894
298.28	10.442
298.65	13.055
299.02	9.486
299.38	9.960
299.75	7.682
300.12	10.089
300.48	9.250
300.85	8.261
301.22	8.917
301.59	9.091
301.95	10.705
302.32	9.114
302.69	9.438
303.05	9.212
303.42	8.148
303.79	8.947
304.15	7.459
304.52	8.691
304.89	8.595
305.25	9.397
305.62	8.834
305.99	9.327
306.35	8.837
306.72	8.969
307.09	8.990
307.45	10.360
307.82	8.371
308.19	9.492
308.55	9.385
308.92	8.271
309.29	7.814
309.65	7.635
310.02	9.197
310.38	9.032
310.75	9.187
311.12	9.826
311.48	8.777
311.85	8.910
312.22	8.533
312.58	8.524
312.95	7.814
313.31	8.350
313.68	9.356
314.05	10.947
314.41	9.045
314.78	7.956
315.14	7.448
315.51	8.857
315.87	7.525
316.24	7.349
316.61	8.967
316.97	8.611
317.34	7.632
317.70	8.317
318.07	7.892
318.43	8.415
318.80	9.278
319.16	7.910
319.53	8.443
319.89	7.810
320.26	8.900
320.62	8.036
320.99	8.990
321.35	8.182
321.72	7.700
322.08	8.292
322.45	9.652
322.81	8.624
323.18	8.574
323.54	9.647
323.91	8.774
324.27	9.560
324.64	7.363
325.00	7.574
325.37	8.189
325.73	9.695
326.10	8.385
326.46	8.244
326.83	9.318
327.19	8.796
327.56	9.321
327.92	8.224
328.29	9.938
328.65	9.853
329.01	8.574
329.38	8.973
329.74	8.587
330.11	8.200
330.47	9.550
330.84	9.559
331.20	8.106
331.56	9.083
331.93	7.778
332.29	9.139
332.66	9.823
333.02	9.049
333.38	8.762
333.75	9.715
334.11	8.452
334.48	8.873
334.84	8.456
335.20	9.182
335.57	9.429
335.93	7.589
336.29	8.974
336.66	9.107
337.02	7.421
337.38	8.611
337.75	8.200
338.11	7.341
338.47	8.379
338.84	9.533
339.20	7.890
339.56	10.858
339.93	8.545
340.29	7.609
340.65	8.734
341.02	8.813
341.38	8.986
341.74	7.456
342.11	8.559
342.47	8.987
342.83	8.305
343.20	8.831
343.56	8.509
343.92	7.807
344.28	8.163
344.65	8.255
345.01	7.997
345.37	7.461
345.73	8.376
346.10	7.673
346.46	8.051
346.82	8.155
347.19	8.187
347.55	8.292
347.91	9.061
348.27	7.806
348.63	8.696
349.00	7.524
349.36	7.964
349.72	8.661
350.08	7.861
350.45	8.462
350.81	8.042
351.17	8.104
351.53	7.699
351.89	7.178
352.26	8.603
352.62	8.180
352.98	7.699
353.34	7.149
353.70	7.365
354.07	7.984
354.43	8.651
354.79	7.965
355.15	7.502
355.51	8.633
355.87	7.673
356.24	7.899
356.60	7.298
356.96	7.562
357.32	7.850
357.68	7.874
358.04	7.680
358.40	7.838
358.77	7.903
359.13	7.340
359.49	7.216
359.85	6.508
360.21	6.459
360.57	8.249
360.93	6.923
361.29	7.029
361.66	7.043
362.02	8.209
362.38	7.833
362.74	7.812
363.10	7.624
363.46	6.750
363.82	7.407
364.18	7.562
364.54	7.727
364.90	7.011
365.26	6.618
365.62	7.232
365.98	6.939
366.35	6.232
366.71	7.881
367.07	6.409
367.43	7.692
367.79	8.066
368.15	7.902
368.51	6.759
368.87	7.637
369.23	7.096
369.59	7.676
369.95	7.059
370.31	6.980
370.67	7.391
371.03	8.689
371.39	7.289
371.75	7.500
372.11	7.255
372.47	7.625
372.83	7.637
373.19	7.298
373.55	7.539
373.91	8.027
374.27	7.148
374.63	6.691
374.99	7.698
375.35	6.629
375.71	6.580
376.07	6.241
376.42	7.634
376.78	6.958
377.14	6.988
377.50	7.351
377.86	6.848
378.22	7.080
378.58	6.328
378.94	6.285
379.30	6.234
379.66	6.980
380.02	7.371
380.38	6.375
380.74	6.843
381.09	7.213
381.45	7.007
381.81	7.801
382.17	7.134
382.53	6.667
382.89	6.914
383.25	6.191
383.61	7.187
383.97	7.192
384.32	6.925
384.68	6.196
385.04	6.146
385.40	6.563
385.76	6.081
386.12	6.736
386.48	7.363
386.83	6.928
387.19	7.297
387.55	7.050
387.91	6.469
388.27	6.560
388.62	7.191
388.98	6.327
389.34	6.946
389.70	6.683
390.06	7.351
390.42	6.680
390.77	7.379
391.13	7.211
391.49	6.726
391.85	6.429
392.20	5.615
392.56	6.503
392.92	6.416
393.28	5.740
393.64	6.355
393.99	6.964
394.35	6.017
394.71	6.901
395.07	5.545
395.42	7.169
395.78	7.634
396.14	6.518
396.50	7.268
396.85	7.756
397.21	5.980
397.57	6.510
397.92	7.392
398.28	5.774
398.64	6.571
399.00	6.435
399.35	5.809
399.71	6.019
400.07	7.629
400.42	6.442
400.78	6.996
401.14	6.585
401.49	6.806
401.85	5.929
402.21	6.407
402.57	5.984
402.92	5.990
403.28	6.996
403.63	6.126
403.99	6.115
404.35	6.727
404.70	6.175
405.06	5.475
405.42	6.114
405.77	6.057
406.13	6.095
406.49	5.973
406.84	7.029
407.20	5.733
407.55	7.020
407.91	6.333
408.27	5.297
408.62	6.081
408.98	5.882
409.34	6.704
409.69	6.645
410.05	6.506
410.40	6.300
410.76	5.914
411.11	7.057
411.47	6.198
411.83	6.781
412.18	5.999
412.54	6.725
412.89	6.867
413.25	6.316
413.60	6.485
413.96	6.072
414.31	5.893
414.67	6.971
415.03	6.623
415.38	6.572
415.74	6.688
416.09	6.597
416.45	6.359
416.80	5.618
417.16	7.038
417.51	6.636
417.87	6.101
418.22	6.625
418.58	7.489
418.93	7.064
419.29	7.193
419.64	6.612
420.00	7.012
420.35	7.420
420.71	6.276
421.06	6.325
421.42	6.082
421.77	5.717
422.12	5.896
422.48	5.990
422.83	5.766
423.19	6.354
423.54	6.616
423.90	6.957
424.25	6.198
424.61	6.012
424.96	6.122
425.31	6.977
425.67	5.674
426.02	6.057
426.38	6.838
426.73	5.793
427.09	6.261
427.44	6.440
427.79	5.980
428.15	6.250
428.50	6.729
428.85	6.913
429.21	6.350
429.56	5.962
429.92	6.140
430.27	5.412
430.62	5.632
430.98	5.968
431.33	6.649
431.68	6.230
432.04	6.656
432.39	5.425
432.74	6.104
433.10	5.716
433.45	6.414
433.80	6.208
434.16	6.143
434.51	6.526
434.86	6.442
435.22	5.892
435.57	5.775
435.92	5.325
436.28	6.346
436.63	7.119
436.98	5.781
437.34	6.321
437.69	7.001
438.04	6.521
438.39	6.806
438.75	7.205
439.10	6.313
439.45	7.320
439.81	6.224
440.16	6.437
440.51	6.503
440.86	6.485
441.22	5.951
441.57	6.316
441.92	6.704
442.27	6.082
442.63	6.056
442.98	6.254
443.33	6.359
443.68	6.298
444.03	5.564
444.39	6.037
444.74	6.439
445.09	6.577
445.44	5.960
445.79	6.531
446.15	7.200
446.50	6.085
446.85	5.910
447.20	6.068
447.55	6.142
447.91	6.509
448.26	6.066
448.61	6.501
448.96	6.478
449.31	6.412
449.66	6.640
450.02	6.462
450.37	6.122
450.72	6.373
451.07	5.911
451.42	5.957
451.77	6.166
452.12	7.390
452.47	6.281
452.83	6.294
453.18	6.601
453.53	6.555
453.88	6.556
454.23	6.874
454.58	6.905
454.93	7.120
455.28	5.673
455.63	6.371
455.98	7.619
456.34	6.470
456.69	7.639
457.04	7.740
457.39	7.072
457.74	6.558
458.09	6.958
458.44	7.013
458.79	6.399
459.14	7.280
459.49	6.246
459.84	6.039
460.19	6.482
460.54	7.176
460.89	6.144
461.24	6.800
461.59	7.612
461.94	6.905
462.29	6.825
462.64	6.828
462.99	6.506
463.34	7.733
463.69	6.754
464.04	6.609
464.39	6.899
464.74	7.011
465.09	6.514
465.44	6.537
465.79	6.488
466.14	7.006
466.49	6.396
466.84	7.647
467.19	6.457
467.54	8.062
467.89	6.843
468.24	6.981
468.59	7.387
468.94	6.659
469.29	7.455
469.64	7.965
469.99	7.442
470.34	7.067
470.68	7.184
471.03	7.415
471.38	7.783
471.73	7.328
472.08	8.092
472.43	7.349
472.78	8.361
473.13	7.574
473.48	7.678
473.83	7.500
474.17	6.783
474.52	7.816
474.87	7.356
475.22	6.674
475.57	7.254
475.92	7.010
476.27	6.708
476.61	6.895
476.96	6.322
477.31	6.593
477.66	7.112
478.01	7.057
478.36	7.033
478.70	6.854
479.05	6.976
479.40	6.653
479.75	6.355
480.10	6.660
480.45	5.997
480.79	5.877
481.14	6.458
481.49	6.929
481.84	6.264
482.19	6.088
482.53	6.330
482.88	6.189
483.23	6.729
483.58	6.597
483.92	6.279
484.27	5.403
484.62	6.681
484.97	6.110
485.31	5.514
485.66	4.990
486.01	4.127
486.36	4.351
486.70	4.301
487.05	4.849
487.40	4.928
487.75	5.340
488.09	5.520
488.44	5.270
488.79	5.570
489.13	5.882
489.48	5.954
489.83	6.172
490.17	6.269
490.52	6.156
490.87	6.151
491.22	6.412
491.56	5.604
491.91	6.561
492.26	6.247
492.60	6.682
492.95	5.332
493.30	6.589
493.64	6.440
493.99	6.314
494.34	6.059
494.68	6.593
495.03	7.143
495.37	6.235
495.72	6.433
496.07	6.821
496.41	6.327
496.76	6.596
497.11	6.033
497.45	6.474
497.80	6.718
498.14	6.184
498.49	6.195
498.84	6.472
499.18	6.524
499.53	6.505
499.87	6.431
500.22	6.312
500.56	7.087
500.91	6.779
501.26	6.543
501.60	7.309
501.95	6.920
502.29	6.514
502.64	6.937
502.98	6.872
503.33	7.221
503.67	6.497
504.02	6.268
504.36	6.036
504.71	6.400
505.06	7.229
505.40	6.709
505.75	6.509
506.09	6.754
506.44	6.759
506.78	6.771
507.13	6.764
507.47	7.222
507.82	6.687
508.16	7.244
508.51	7.610
508.85	6.951
509.19	7.347
509.54	7.398
509.88	7.264
510.23	7.044
510.57	7.946
510.92	6.991
511.26	7.554
511.61	7.884
511.95	6.106
512.30	6.522
512.64	7.738
512.98	7.074
513.33	6.745
513.67	7.684
514.02	6.764
514.36	7.264
514.70	7.526
515.05	6.860
515.39	8.076
515.74	7.376
516.08	7.714
516.42	7.936
516.77	8.138
517.11	7.714
517.46	8.239
517.80	7.549
518.14	7.470
518.49	7.818
518.83	8.239
519.17	8.025
519.52	7.923
519.86	8.614
520.20	8.035
520.55	8.378
520.89	8.333
521.23	8.504
521.58	8.223
521.92	8.389
522.26	8.115
522.61	7.850
522.95	7.858
523.29	7.669
523.64	8.415
523.98	8.010
524.32	8.142
524.66	9.020
525.01	9.007
525.35	8.736
525.69	8.498
526.04	8.536
526.38	7.444
526.72	8.528
527.06	8.223
527.41	7.426
527.75	8.939
528.09	8.478
528.43	8.413
528.78	8.605
529.12	7.939
529.46	8.696
529.80	8.416
530.15	9.034
530.49	8.615
530.83	9.494
531.17	8.747
531.51	9.533
531.86	8.645
532.20	9.909
532.54	9.161
532.88	9.499
533.22	8.994
533.57	8.580
533.91	8.489
534.25	8.384
534.59	8.298
534.93	8.388
535.27	9.113
535.62	8.547
535.96	8.851
536.30	8.455
536.64	8.886
536.98	9.224
537.32	9.217
537.66	8.333
538.01	8.229
538.35	8.727
538.69	9.509
539.03	8.512
539.37	8.562
539.71	7.647
540.05	8.758
540.39	8.571
540.73	8.150
541.07	9.085
541.42	8.611
541.76	9.419
542.10	8.797
542.44	9.007
542.78	9.881
543.12	8.509
543.46	9.246
543.80	9.629
544.14	7.959
544.48	8.825
544.82	8.275
545.16	8.588
545.50	8.548
545.84	8.871
546.18	8.754
546.52	8.741
546.86	8.660
547.20	8.833
547.54	8.951
547.88	9.694
548.22	8.966
548.56	9.434
548.90	9.091
549.24	8.148
549.58	9.277
549.92	9.203
550.26	8.665
550.60	8.645
550.94	9.859
551.28	8.998
551.62	9.705
551.96	9.333
552.30	9.352
552.64	9.669
552.98	9.017
553.32	8.968
553.66	9.816
554.00	9.472
554.34	8.075
554.68	8.512
555.02	9.732
555.36	8.907
555.69	9.134
556.03	9.421
556.37	9.618
556.71	8.254
557.05	9.664
557.39	8.537
557.73	8.327
558.07	9.645
558.41	9.190
558.75	9.184
559.08	10.067
559.42	8.088
559.76	9.338
560.10	8.994
560.44	8.316
560.78	9.248
561.12	9.235
561.45	10.169
561.79	9.163
562.13	9.256
562.47	8.811
562.81	9.344
563.15	8.562
563.48	8.687
563.82	9.589
564.16	8.502
564.50	8.138
564.84	8.028
565.17	7.851
565.51	9.010
565.85	8.503
566.19	7.577
566.52	8.803
566.86	8.137
567.20	9.021
567.54	8.162
567.88	7.768
568.21	8.466
568.55	7.533
568.89	7.879
569.23	7.709
569.56	7.409
569.90	7.170
570.24	6.746
570.57	6.664
570.91	6.690
571.25	6.578
571.59	6.274
571.92	6.394
572.26	6.644
572.60	6.697
572.93	6.657
573.27	6.773
573.61	6.644
573.95	6.563
574.28	6.131
574.62	6.463
574.96	5.998
575.29	6.256
575.63	6.377
575.97	6.222
576.30	6.559
576.64	5.914
576.98	6.077
577.31	5.915
577.65	5.972
577.98	5.750
578.32	5.778
578.66	6.080
578.99	5.958
579.33	6.124
579.67	6.081
580.00	6.210
580.34	6.099
580.67	6.098
581.01	6.206
581.35	5.727
581.68	5.858
582.02	5.440
582.35	5.714
582.69	5.950
583.02	5.775
583.36	6.110
583.70	6.444
584.03	6.165
584.37	6.403
584.70	6.008
585.04	6.311
585.37	6.174
585.71	6.086
586.04	6.378
586.38	6.217
586.72	6.462
587.05	6.303
587.39	6.227
587.72	6.339
588.06	6.163
588.39	6.475
588.73	6.454
589.06	6.856
589.40	6.970
589.73	6.617
590.07	6.940
590.40	6.686
590.73	7.104
591.07	7.570
591.40	7.465
591.74	7.143
592.07	7.199
592.41	7.441
592.74	6.592
593.08	6.596
593.41	6.643
593.75	6.558
594.08	6.671
594.41	6.752
594.75	6.248
595.08	7.051
595.42	6.900
595.75	6.766
596.09	6.759
596.42	7.544
596.75	7.598
597.09	7.532
597.42	7.040
597.75	7.288
598.09	7.174
598.42	7.302
598.76	7.094
599.09	6.575
599.42	6.805
599.76	7.138
600.09	6.120
600.42	6.538
600.76	6.571
601.09	6.120
601.42	7.458
601.76	7.059
602.09	7.036
602.42	7.086
602.76	7.175
603.09	6.452
603.42	6.833
603.76	7.279
604.09	7.096
604.42	7.012
604.76	7.803
605.09	7.034
605.42	7.439
605.75	7.285
606.09	7.035
606.42	7.274
606.75	7.175
607.09	7.660
607.42	6.590
607.75	7.004
608.08	7.251
608.42	7.620
608.75	6.718
609.08	6.938
609.41	7.425
609.75	7.337
610.08	7.964
610.41	6.937
610.74	7.096
611.07	7.312
611.41	7.409
611.74	8.245
612.07	7.660
612.40	7.870
612.73	7.211
613.07	8.513
613.40	7.478
613.73	7.079
614.06	7.742
614.39	7.813
614.72	8.105
615.06	8.088
615.39	7.537
615.72	7.464
616.05	8.134
616.38	8.282
616.71	8.373
617.05	8.598
617.38	8.479
617.71	7.868
618.04	9.014
618.37	8.457
618.70	8.525
619.03	8.882
619.36	8.758
619.69	9.014
620.03	8.585
620.36	8.890
620.69	10.411
621.02	9.218
621.35	7.909
621.68	8.489
622.01	9.056
622.34	8.169
622.67	9.049
623.00	8.364
623.33	8.435
623.66	8.363
623.99	9.205
624.32	8.773
624.65	8.333
624.99	8.357
625.32	8.327
625.65	8.715
625.98	10.069
626.31	9.176
626.64	9.633
626.97	8.894
627.30	9.144
627.63	10.172
627.96	9.924
628.29	10.761
628.62	9.790
628.95	12.075
629.28	10.310
629.61	10.999
629.94	10.762
630.26	10.105
630.59	10.105
630.92	9.291
631.25	9.279
631.58	9.610
631.91	9.635
632.24	10.021
632.57	11.228
632.90	10.746
633.23	11.298
633.56	11.864
633.89	12.231
634.22	11.010
634.55	12.071
634.88	11.737
635.20	12.664
635.53	12.651
635.86	10.644
636.19	11.882
636.52	10.842
636.85	11.798
637.18	10.714
637.51	11.584
637.83	8.631
638.16	12.148
638.49	12.972
638.82	13.527
639.15	11.875
639.48	11.845
639.81	11.796
640.13	12.630
640.46	12.617
640.79	12.021
641.12	11.829
641.45	12.989
641.77	12.960
642.10	12.427
642.43	12.613
642.76	11.300
643.09	13.804
643.41	12.898
643.74	14.198
644.07	14.482
644.40	13.804
644.73	14.173
645.05	14.580
645.38	12.638
645.71	12.882
646.04	12.957
646.36	16.861
646.69	15.719
647.02	12.925
647.35	15.464
647.67	14.336
648.00	14.309
648.33	12.706
648.66	13.485
648.98	13.643
649.31	11.809
649.64	13.901
649.96	12.370
650.29	13.428
650.62	13.754
650.94	13.614
651.27	14.865
651.60	14.642
