SpectraSuite Data File
++++++++++++++++++++++++++++++++++++
Date: Wed May 13 19:55:47 PDT 2015
User: schluterlab
Dark Spectrum Present: Yes
Reference Spectrum Present: Yes
Number of Sampled Component Spectra: 1
Spectrometers: USB2E3373
Integration Time (usec): 3000 (USB2E3373)
Spectra Averaged: 3 (USB2E3373)
Boxcar Smoothing: 0 (USB2E3373)
Correct for Electrical Dark: No (USB2E3373)
Strobe/Lamp Enabled: No (USB2E3373)
Correct for Detector Non-linearity: No (USB2E3373)
Correct for Stray Light: No (USB2E3373)
Number of Pixels in Processed Spectrum: 2048
>>>>>Begin Processed Spectral Data<<<<<
178.53	0.000
178.91	-1350.000
179.29	-1175.000
179.67	-222.222
180.04	-1050.000
180.42	2800.000
180.80	980.000
181.18	-1300.000
181.56	742.857
181.94	0.000
182.31	-728.571
182.69	1800.000
183.07	-612.500
183.45	-544.444
183.83	527.273
184.20	-390.000
184.58	2450.000
184.96	6500.000
185.34	-1120.000
185.72	-587.500
186.09	-2300.000
186.47	2850.000
186.85	2400.000
187.23	5000.000
187.61	-1633.333
187.98	1275.000
188.36	509.091
188.74	527.273
189.12	-800.000
189.49	510.000
189.87	-5700.000
190.25	-1250.000
190.63	400.000
191.00	446.154
191.38	800.000
191.76	-1000.000
192.14	1450.000
192.51	662.500
192.89	933.333
193.27	662.500
193.65	-1200.000
194.02	550.000
194.40	1180.000
194.78	640.000
195.15	591.667
195.53	610.000
195.91	-1900.000
196.29	337.500
196.66	331.579
197.04	-360.000
197.42	0.000
197.79	640.000
198.17	-4800.000
198.55	728.571
198.92	737.500
199.30	840.000
199.68	0.000
200.05	322.222
200.43	914.286
200.81	3900.000
201.18	1566.667
201.56	-1900.000
201.94	688.889
202.31	644.444
202.69	383.333
203.07	560.000
203.44	0.000
203.82	1350.000
204.19	828.571
204.57	478.571
204.95	625.000
205.32	1466.667
205.70	454.545
206.08	400.000
206.45	2750.000
206.83	418.750
207.20	966.667
207.58	960.000
207.96	288.889
208.33	750.000
208.71	-683.333
209.08	814.286
209.46	722.222
209.84	490.909
210.21	-1566.667
210.59	1400.000
210.96	-525.000
211.34	2450.000
211.71	540.000
212.09	700.000
212.46	0.000
212.84	1400.000
213.22	1500.000
213.59	-4200.000
213.97	866.667
214.34	885.714
214.72	509.091
215.09	840.000
215.47	-3100.000
215.84	-2500.000
216.22	1500.000
216.59	414.286
216.97	1250.000
217.34	409.091
217.72	-750.000
218.09	0.000
218.47	-4400.000
218.84	577.778
219.22	700.000
219.59	1866.667
219.97	-700.000
220.34	1160.000
220.72	-1633.333
221.09	428.571
221.47	1450.000
221.84	-933.333
222.22	0.000
222.59	1475.000
222.97	-2400.000
223.34	1020.000
223.72	376.923
224.09	1160.000
224.46	2300.000
224.84	-5400.000
225.21	-1100.000
225.59	-4900.000
225.96	620.000
226.34	285.000
226.71	3000.000
227.08	675.000
227.46	530.000
227.83	-1150.000
228.21	-2600.000
228.58	644.444
228.95	-2600.000
229.33	-1950.000
229.70	1766.667
230.08	785.714
230.45	-840.000
230.82	441.667
231.20	850.000
231.57	842.857
231.95	475.000
232.32	236.364
232.69	327.273
233.07	671.429
233.44	423.077
233.81	-1600.000
234.19	294.737
234.56	433.333
234.93	391.667
235.31	436.364
235.68	307.692
236.05	314.286
236.43	172.727
236.80	300.000
237.17	4800.000
237.55	242.857
237.92	203.571
238.29	257.143
238.67	164.516
239.04	217.241
239.41	166.667
239.79	119.565
240.16	126.190
240.53	138.636
240.91	105.882
241.28	110.000
241.65	114.000
242.02	101.449
242.40	83.871
242.77	96.667
243.14	74.194
243.51	70.787
243.89	72.941
244.26	52.222
244.63	55.914
245.00	58.511
245.38	50.495
245.75	51.402
246.12	49.541
246.49	57.664
246.87	53.600
247.24	50.769
247.61	45.000
247.98	44.444
248.36	45.270
248.73	41.401
249.10	38.217
249.47	35.028
249.84	31.016
250.22	35.829
250.59	39.053
250.96	36.869
251.33	30.332
251.70	33.168
252.08	33.333
252.45	26.906
252.82	26.957
253.19	33.617
253.56	30.980
253.94	30.705
254.31	28.125
254.68	28.462
255.05	27.306
255.42	26.829
255.79	29.779
256.16	31.047
256.54	21.555
256.91	28.470
257.28	23.022
257.65	22.442
258.02	25.776
258.39	25.552
258.76	22.074
259.14	25.298
259.51	24.316
259.88	21.429
260.25	23.867
260.62	24.855
260.99	21.739
261.36	26.126
261.73	21.203
262.10	23.547
262.47	23.099
262.85	22.006
263.22	15.670
263.59	24.217
263.96	20.055
264.33	21.932
264.70	23.421
265.07	21.483
265.44	21.717
265.81	19.951
266.18	18.342
266.55	21.951
266.92	19.165
267.29	19.444
267.66	19.954
268.03	18.636
268.40	21.495
268.77	18.616
269.14	18.468
269.51	19.865
269.88	17.716
270.25	18.284
270.62	19.101
270.99	21.505
271.36	20.601
271.73	19.159
272.10	17.391
272.47	19.570
272.84	20.130
273.21	19.706
273.58	17.686
273.95	17.610
274.32	17.355
274.69	17.559
275.06	18.307
275.43	18.723
275.80	17.435
276.17	17.312
276.54	17.879
276.91	17.589
277.28	15.820
277.65	18.182
278.02	16.356
278.39	17.578
278.76	16.364
279.13	19.057
279.50	17.505
279.87	14.940
280.23	18.363
280.60	16.054
280.97	16.451
281.34	17.345
281.71	17.636
282.08	17.466
282.45	16.364
282.82	16.874
283.19	15.508
283.56	17.368
283.92	16.413
284.29	15.168
284.66	16.334
285.03	14.828
285.40	16.373
285.77	14.983
286.14	16.062
286.51	16.667
286.87	14.359
287.24	15.798
287.61	15.891
287.98	16.234
288.35	15.531
288.72	13.551
289.08	16.119
289.45	14.992
289.82	15.447
290.19	14.757
290.56	13.323
290.93	14.955
291.29	13.497
291.66	14.749
292.03	15.843
292.40	13.363
292.77	15.089
293.13	13.284
293.50	15.452
293.87	14.667
294.24	13.778
294.60	12.518
294.97	13.808
295.34	13.963
295.71	13.920
296.08	13.675
296.44	11.967
296.81	13.342
297.18	14.363
297.55	10.818
297.91	11.873
298.28	13.788
298.65	13.446
299.02	12.780
299.38	12.616
299.75	11.995
300.12	10.600
300.48	12.500
300.85	11.961
301.22	13.121
301.59	10.859
301.95	12.217
302.32	12.067
302.69	12.306
303.05	12.121
303.42	10.494
303.79	12.571
304.15	9.790
304.52	11.472
304.89	11.382
305.25	11.833
305.62	11.891
305.99	12.397
306.35	11.521
306.72	11.996
307.09	12.209
307.45	12.500
307.82	11.161
308.19	11.921
308.55	12.621
308.92	12.460
309.29	11.932
309.65	11.665
310.02	11.099
310.38	11.398
310.75	12.144
311.12	12.999
311.48	12.853
311.85	13.732
312.22	13.319
312.58	12.578
312.95	13.833
313.31	11.845
313.68	12.266
314.05	15.187
314.41	13.166
314.78	13.696
315.14	13.307
315.51	12.461
315.87	15.050
316.24	15.789
316.61	13.938
316.97	14.286
317.34	14.775
317.70	15.488
318.07	15.977
318.43	16.634
318.80	16.120
319.16	17.043
319.53	15.197
319.89	18.095
320.26	18.500
320.62	18.651
320.99	17.576
321.35	18.485
321.72	19.610
322.08	19.546
322.45	19.602
322.81	20.640
323.18	21.869
323.54	21.521
323.91	21.698
324.27	22.084
324.64	20.969
325.00	21.371
325.37	23.476
325.73	24.506
326.10	22.242
326.46	23.387
326.83	24.935
327.19	23.997
327.56	24.564
327.92	25.109
328.29	26.531
328.65	25.967
329.01	26.083
329.38	27.105
329.74	25.300
330.11	28.087
330.47	27.640
330.84	27.390
331.20	27.140
331.56	27.982
331.93	27.037
332.29	28.838
332.66	29.115
333.02	27.971
333.38	29.449
333.75	28.342
334.11	28.559
334.48	29.015
334.84	28.585
335.20	29.182
335.57	29.012
335.93	27.411
336.29	28.480
336.66	29.847
337.02	28.688
337.38	29.722
337.75	28.520
338.11	29.902
338.47	28.913
338.84	30.797
339.20	30.183
339.56	31.204
339.93	30.364
340.29	28.986
340.65	30.125
341.02	31.065
341.38	29.804
341.74	30.965
342.11	29.083
342.47	30.573
342.83	30.394
343.20	31.515
343.56	30.076
343.92	31.228
344.28	30.952
344.65	31.642
345.01	31.313
345.37	30.789
345.73	32.149
346.10	31.628
346.46	31.695
346.82	30.890
347.19	30.576
347.55	31.117
347.91	32.524
348.27	32.703
348.63	32.358
349.00	31.634
349.36	32.759
349.72	32.879
350.08	31.929
350.45	33.279
350.81	32.819
351.17	32.172
351.53	32.596
351.89	32.756
352.26	34.412
352.62	32.799
352.98	33.549
353.34	33.854
353.70	31.833
354.07	33.710
354.43	32.698
354.79	32.824
355.15	32.562
355.51	34.612
355.87	34.367
356.24	33.876
356.60	33.119
356.96	33.467
357.32	33.197
357.68	35.118
358.04	34.679
358.40	34.600
358.77	33.881
359.13	32.597
359.49	35.373
359.85	33.333
360.21	34.370
360.57	35.253
360.93	35.846
361.29	35.676
361.66	34.830
362.02	34.776
362.38	34.905
362.74	37.054
363.10	35.307
363.46	35.437
363.82	35.828
364.18	34.949
364.54	36.256
364.90	35.552
365.26	35.882
365.62	37.692
365.98	36.450
366.35	34.957
366.71	37.599
367.07	36.635
367.43	37.083
367.79	37.116
368.15	38.147
368.51	36.192
368.87	37.973
369.23	37.966
369.59	36.495
369.95	37.059
370.31	37.963
370.67	37.754
371.03	39.625
371.39	38.120
371.75	38.529
372.11	38.122
372.47	39.076
372.83	38.689
373.19	38.295
373.55	38.137
373.91	39.323
374.27	38.282
374.63	39.200
374.99	39.689
375.35	37.753
375.71	39.205
376.07	39.026
376.42	39.477
376.78	39.894
377.14	40.095
377.50	40.596
377.86	38.231
378.22	40.898
378.58	39.411
378.94	39.598
379.30	40.013
379.66	41.180
380.02	40.295
380.38	40.194
380.74	41.236
381.09	40.709
381.45	41.057
381.81	40.418
382.17	41.911
382.53	40.818
382.89	42.346
383.25	40.775
383.61	42.565
383.97	40.838
384.32	40.549
384.68	41.140
385.04	41.180
385.40	41.424
385.76	42.936
386.12	42.163
386.48	43.235
386.83	43.554
387.19	43.785
387.55	43.661
387.91	43.168
388.27	42.735
388.62	43.331
388.98	42.015
389.34	43.367
389.70	43.041
390.06	44.233
390.42	44.812
390.77	44.211
391.13	44.990
391.49	45.368
391.85	43.730
392.20	43.659
392.56	44.823
392.92	43.614
393.28	44.734
393.64	44.904
393.99	43.372
394.35	44.045
394.71	43.350
395.07	42.866
395.42	44.685
395.78	44.847
396.14	44.941
396.50	44.549
396.85	45.518
397.21	45.191
397.57	45.629
397.92	45.974
398.28	44.226
398.64	44.205
399.00	44.320
399.35	44.670
399.71	44.502
400.07	45.476
400.42	44.663
400.78	45.416
401.14	45.854
401.49	45.313
401.85	44.949
402.21	44.611
402.57	44.479
402.92	45.902
403.28	45.721
403.63	46.535
403.99	45.414
404.35	44.970
404.70	44.964
405.06	44.904
405.42	45.041
405.77	43.771
406.13	44.752
406.49	44.175
406.84	44.418
407.20	44.799
407.55	44.863
407.91	45.400
408.27	46.139
408.62	45.936
408.98	45.159
409.34	44.526
409.69	45.290
410.05	45.291
410.40	44.587
410.76	44.982
411.11	45.597
411.47	44.153
411.83	44.960
412.18	44.465
412.54	45.330
412.89	44.819
413.25	44.864
413.60	45.028
413.96	46.023
414.31	44.593
414.67	46.324
415.03	45.033
415.38	45.168
415.74	45.273
416.09	45.656
416.45	44.378
416.80	44.679
417.16	44.906
417.51	46.118
417.87	43.288
418.22	44.921
418.58	44.158
418.93	45.332
419.29	45.258
419.64	44.584
420.00	44.573
420.35	43.826
420.71	44.830
421.06	43.795
421.42	44.678
421.77	44.619
422.12	43.010
422.48	43.929
422.83	44.613
423.19	44.033
423.54	45.502
423.90	44.522
424.25	43.663
424.61	44.286
424.96	44.840
425.31	43.023
425.67	43.596
426.02	43.371
426.38	43.712
426.73	43.008
427.09	43.587
427.44	43.473
427.79	44.163
428.15	44.107
428.50	43.944
428.85	43.743
429.21	43.181
429.56	42.924
429.92	43.181
430.27	43.098
430.62	43.676
430.98	43.072
431.33	42.835
431.68	43.979
432.04	41.267
432.39	43.061
432.74	42.490
433.10	43.067
433.45	43.382
433.80	42.905
434.16	42.521
434.51	42.526
434.86	42.645
435.22	43.357
435.57	43.161
435.92	42.422
436.28	44.009
436.63	43.212
436.98	42.187
437.34	43.470
437.69	42.299
438.04	42.608
438.39	40.896
438.75	42.650
439.10	41.173
439.45	42.208
439.81	42.236
440.16	42.010
440.51	42.414
440.86	41.865
441.22	42.269
441.57	41.614
441.92	42.528
442.27	41.066
442.63	40.969
442.98	42.535
443.33	41.087
443.68	40.681
444.03	41.728
444.39	39.922
444.74	41.180
445.09	42.264
445.44	40.569
445.79	39.782
446.15	40.656
446.50	40.226
446.85	40.802
447.20	39.827
447.55	40.983
447.91	40.927
448.26	40.401
448.61	39.853
448.96	40.808
449.31	40.101
449.66	40.687
450.02	38.997
450.37	39.342
450.72	38.973
451.07	39.244
451.42	38.967
451.77	39.930
452.12	39.203
452.47	39.801
452.83	39.569
453.18	38.936
453.53	39.332
453.88	38.689
454.23	38.673
454.58	38.825
454.93	39.542
455.28	39.401
455.63	38.653
455.98	39.583
456.34	39.133
456.69	38.948
457.04	39.009
457.39	37.697
457.74	37.609
458.09	38.470
458.44	38.084
458.79	36.497
459.14	37.754
459.49	37.128
459.84	36.676
460.19	36.948
460.54	36.227
460.89	37.301
461.24	36.794
461.59	38.350
461.94	36.005
462.29	37.864
462.64	37.205
462.99	36.239
463.34	37.733
463.69	35.835
464.04	36.522
464.39	35.652
464.74	36.720
465.09	35.344
465.44	35.402
465.79	36.074
466.14	34.483
466.49	35.651
466.84	34.559
467.19	34.520
467.54	35.562
467.89	35.114
468.24	34.671
468.59	34.554
468.94	34.392
469.29	35.668
469.64	35.944
469.99	35.521
470.34	34.016
470.68	35.201
471.03	33.878
471.38	34.260
471.73	34.444
472.08	34.671
472.43	33.731
472.78	34.299
473.13	33.954
473.48	34.894
473.83	33.720
474.17	32.607
474.52	34.057
474.87	32.925
475.22	32.676
475.57	32.939
475.92	32.236
476.27	32.187
476.61	32.819
476.96	32.655
477.31	31.920
477.66	31.619
478.01	31.364
478.36	32.099
478.70	31.153
479.05	31.842
479.40	32.088
479.75	32.334
480.10	31.759
480.45	30.747
480.79	30.483
481.14	30.969
481.49	30.850
481.84	30.864
482.19	30.986
482.53	31.055
482.88	30.433
483.23	30.374
483.58	29.891
483.92	30.787
484.27	30.022
484.62	29.655
484.97	28.577
485.31	29.589
485.66	27.753
486.01	26.916
486.36	26.474
486.70	26.482
487.05	26.951
487.40	27.937
487.75	27.437
488.09	28.450
488.44	28.019
488.79	28.969
489.13	28.266
489.48	27.814
489.83	28.312
490.17	27.707
490.52	28.388
490.87	28.991
491.22	27.831
491.56	27.745
491.91	28.339
492.26	26.826
492.60	26.682
492.95	27.502
493.30	27.290
493.64	27.485
493.99	26.323
494.34	27.243
494.68	27.885
495.03	27.491
495.37	27.129
495.72	27.290
496.07	27.471
496.41	26.770
496.76	26.517
497.11	25.349
497.45	26.083
497.80	26.392
498.14	26.087
498.49	25.805
498.84	26.510
499.18	26.286
499.53	26.306
499.87	26.048
500.22	25.389
500.56	27.039
500.91	25.096
501.26	24.751
501.60	25.724
501.95	24.748
502.29	25.492
502.64	25.512
502.98	24.778
503.33	24.954
503.67	24.872
504.02	24.930
504.36	24.661
504.71	25.208
505.06	24.819
505.40	24.064
505.75	23.963
506.09	24.538
506.44	24.716
506.78	25.231
507.13	24.886
507.47	25.152
507.82	24.823
508.16	24.924
508.51	24.860
508.85	24.528
509.19	24.541
509.54	24.031
509.88	24.317
510.23	23.753
510.57	24.871
510.92	24.806
511.26	23.741
511.61	23.807
511.95	23.330
512.30	24.284
512.64	23.589
512.98	24.062
513.33	23.876
513.67	23.106
514.02	23.160
514.36	24.194
514.70	23.630
515.05	23.871
515.39	23.163
515.74	23.705
516.08	24.148
516.42	23.418
516.77	23.746
517.11	23.307
517.46	23.476
517.80	22.764
518.14	22.293
518.49	23.629
518.83	23.693
519.17	23.383
519.52	23.316
519.86	23.446
520.20	22.832
520.55	23.040
520.89	23.601
521.23	23.100
521.58	23.049
521.92	23.209
522.26	22.026
522.61	22.243
522.95	23.880
523.29	22.946
523.64	23.780
523.98	23.105
524.32	22.497
524.66	22.670
525.01	21.998
525.35	22.119
525.69	21.921
526.04	22.305
526.38	23.185
526.72	22.147
527.06	22.787
527.41	21.101
527.75	22.701
528.09	22.222
528.43	22.498
528.78	22.004
529.12	22.121
529.46	22.290
529.80	22.277
530.15	22.368
530.49	21.415
530.83	22.975
531.17	22.193
531.51	22.374
531.86	22.387
532.20	21.904
532.54	21.973
532.88	21.951
533.22	21.799
533.57	20.741
533.91	21.553
534.25	21.507
534.59	21.049
534.93	21.059
535.27	21.304
535.62	22.039
535.96	21.469
536.30	20.598
536.64	21.507
536.98	22.031
537.32	21.922
537.66	21.600
538.01	21.791
538.35	21.138
538.69	22.399
539.03	21.183
539.37	20.575
539.71	20.415
540.05	21.176
540.39	20.332
540.73	21.345
541.07	21.220
541.42	20.678
541.76	21.484
542.10	21.734
542.44	20.596
542.78	21.542
543.12	19.834
543.46	20.721
543.80	20.039
544.14	19.705
544.48	21.016
544.82	20.398
545.16	20.950
545.50	20.951
545.84	21.102
546.18	20.404
546.52	20.716
546.86	20.756
547.20	21.241
547.54	19.840
547.88	20.599
548.22	20.922
548.56	19.686
548.90	19.590
549.24	19.933
549.58	20.055
549.92	20.330
550.26	20.952
550.60	19.710
550.94	20.493
551.28	19.093
551.62	19.626
551.96	20.140
552.30	19.795
552.64	19.878
552.98	20.610
553.32	20.094
553.66	20.723
554.00	20.522
554.34	18.565
554.68	20.243
555.02	19.887
555.36	19.972
555.69	18.809
556.03	19.650
556.37	19.509
556.71	19.441
557.05	19.468
557.39	20.154
557.73	19.972
558.07	20.015
558.41	19.899
558.75	19.838
559.08	20.358
559.42	19.048
559.76	19.485
560.10	19.629
560.44	18.379
560.78	18.629
561.12	18.997
561.45	19.361
561.79	19.380
562.13	19.115
562.47	19.331
562.81	18.898
563.15	18.127
563.48	18.435
563.82	18.787
564.16	17.397
564.50	17.839
564.84	18.647
565.17	18.855
565.51	18.914
565.85	18.845
566.19	18.347
566.52	18.239
566.86	17.842
567.20	18.514
567.54	17.352
567.88	17.165
568.21	17.937
568.55	17.341
568.89	16.926
569.23	16.399
569.56	16.721
569.90	17.396
570.24	16.111
570.57	15.879
570.91	15.869
571.25	16.245
571.59	15.994
571.92	15.438
572.26	15.916
572.60	16.577
572.93	15.952
573.27	16.327
573.61	16.108
573.95	15.788
574.28	15.704
574.62	15.355
574.96	15.556
575.29	15.228
575.63	15.117
575.97	15.465
576.30	15.799
576.64	15.441
576.98	15.192
577.31	15.042
577.65	14.832
577.98	15.259
578.32	14.913
578.66	15.094
578.99	15.134
579.33	14.936
579.67	15.276
580.00	14.912
580.34	15.140
580.67	15.103
581.01	14.886
581.35	14.809
581.68	14.692
582.02	14.431
582.35	14.720
582.69	14.933
583.02	14.982
583.36	15.126
583.70	15.210
584.03	15.204
584.37	15.204
584.70	14.734
585.04	15.044
585.37	14.818
585.71	15.061
586.04	14.907
586.38	15.230
586.72	15.521
587.05	14.887
587.39	14.908
587.72	15.177
588.06	14.941
588.39	15.391
588.73	14.931
589.06	15.425
589.40	14.815
589.73	15.136
590.07	15.587
590.40	14.615
590.73	15.652
591.07	15.832
591.40	15.732
591.74	15.931
592.07	15.750
592.41	15.750
592.74	15.169
593.08	15.090
593.41	14.964
593.75	14.834
594.08	14.918
594.41	15.200
594.75	15.083
595.08	14.889
595.42	14.851
595.75	14.815
596.09	15.546
596.42	16.110
596.75	15.281
597.09	16.277
597.42	15.261
597.75	15.222
598.09	15.261
598.42	15.077
598.76	14.998
599.09	14.405
599.42	15.211
599.76	15.117
600.09	14.536
600.42	15.084
600.76	14.536
601.09	14.827
601.42	14.992
601.76	14.877
602.09	15.731
602.42	15.287
602.76	15.961
603.09	14.673
603.42	15.307
603.76	14.977
604.09	14.153
604.42	14.961
604.76	15.310
605.09	15.072
605.42	15.263
605.75	14.735
606.09	14.437
606.42	14.753
606.75	15.015
607.09	15.362
607.42	14.591
607.75	14.768
608.08	14.850
608.42	15.240
608.75	14.833
609.08	15.079
609.41	15.088
609.75	15.007
610.08	15.127
610.41	14.758
610.74	13.907
611.07	15.810
611.41	14.917
611.74	15.234
612.07	15.424
612.40	14.953
612.73	15.158
613.07	15.948
613.40	15.903
613.73	13.896
614.06	14.839
614.39	15.994
614.72	15.158
615.06	15.231
615.39	14.703
615.72	14.826
616.05	14.992
616.38	14.842
616.71	15.321
617.05	15.724
617.38	15.514
617.71	14.895
618.04	16.106
618.37	15.139
618.70	16.801
619.03	16.382
619.36	15.682
619.69	15.775
620.03	16.209
620.36	16.243
620.69	16.644
621.02	16.077
621.35	16.288
621.68	15.498
622.01	15.789
622.34	16.263
622.67	16.502
623.00	15.554
623.33	15.940
623.66	16.369
623.99	16.642
624.32	16.405
624.65	15.819
624.99	15.085
625.32	15.351
625.65	16.003
625.98	16.218
626.31	16.252
626.64	15.918
626.97	17.041
627.30	16.209
627.63	17.884
627.96	15.643
628.29	17.673
628.62	18.115
628.95	19.151
629.28	17.883
629.61	17.874
629.94	16.000
630.26	17.159
630.59	16.683
630.92	16.571
