SpectraSuite Data File
++++++++++++++++++++++++++++++++++++
Date: Wed May 13 19:46:17 PDT 2015
User: schluterlab
Dark Spectrum Present: Yes
Reference Spectrum Present: Yes
Number of Sampled Component Spectra: 1
Spectrometers: USB2E3373
Integration Time (usec): 3000 (USB2E3373)
Spectra Averaged: 3 (USB2E3373)
Boxcar Smoothing: 0 (USB2E3373)
Correct for Electrical Dark: No (USB2E3373)
Strobe/Lamp Enabled: No (USB2E3373)
Correct for Detector Non-linearity: No (USB2E3373)
Correct for Stray Light: No (USB2E3373)
Number of Pixels in Processed Spectrum: 2048
>>>>>Begin Processed Spectral Data<<<<<
178.53	0.000
178.91	-1325.000
179.29	-1250.000
179.67	-222.222
180.04	-1350.000
180.42	2500.000
180.80	960.000
181.18	-1025.000
181.56	742.857
181.94	0.000
182.31	-571.429
182.69	1766.667
183.07	-600.000
183.45	-555.556
183.83	518.182
184.20	-390.000
184.58	2050.000
184.96	4900.000
185.34	-780.000
185.72	-587.500
186.09	-2200.000
186.47	2550.000
186.85	2700.000
187.23	5000.000
187.61	-1600.000
187.98	1425.000
188.36	527.273
188.74	463.636
189.12	-1020.000
189.49	540.000
189.87	-4700.000
190.25	-1300.000
190.63	428.571
191.00	415.385
191.38	766.667
191.76	-1075.000
192.14	1375.000
192.51	675.000
192.89	866.667
193.27	700.000
193.65	-1100.000
194.02	510.000
194.40	960.000
194.78	530.000
195.15	416.667
195.53	690.000
195.91	-1950.000
196.29	400.000
196.66	336.842
197.04	-360.000
197.42	0.000
197.79	580.000
198.17	-4500.000
198.55	614.286
198.92	662.500
199.30	880.000
199.68	0.000
200.05	294.444
200.43	614.286
200.81	3200.000
201.18	1600.000
201.56	-1800.000
201.94	477.778
202.31	644.444
202.69	391.667
203.07	560.000
203.44	0.000
203.82	1475.000
204.19	814.286
204.57	378.571
204.95	687.500
205.32	1866.667
205.70	463.636
206.08	364.286
206.45	2400.000
206.83	337.500
207.20	966.667
207.58	780.000
207.96	300.000
208.33	812.500
208.71	-700.000
209.08	714.286
209.46	477.778
209.84	463.636
210.21	-1300.000
210.59	1375.000
210.96	-537.500
211.34	2650.000
211.71	700.000
212.09	800.000
212.46	0.000
212.84	2033.333
213.22	1275.000
213.59	-4500.000
213.97	850.000
214.34	757.143
214.72	563.636
215.09	1060.000
215.47	-2800.000
215.84	-2300.000
216.22	1433.333
216.59	435.714
216.97	1375.000
217.34	490.909
217.72	-783.333
218.09	0.000
218.47	-4400.000
218.84	655.556
219.22	685.714
219.59	1733.333
219.97	-657.143
220.34	920.000
220.72	-1833.333
221.09	357.143
221.47	1425.000
221.84	-916.667
222.22	0.000
222.59	1225.000
222.97	-2250.000
223.34	1220.000
223.72	361.538
224.09	960.000
224.46	2300.000
224.84	-3500.000
225.21	-920.000
225.59	-5100.000
225.96	620.000
226.34	295.000
226.71	2800.000
227.08	637.500
227.46	480.000
227.83	-900.000
228.21	-2150.000
228.58	611.111
228.95	-2650.000
229.33	-2050.000
229.70	1800.000
230.08	857.143
230.45	-880.000
230.82	433.333
231.20	800.000
231.57	828.571
231.95	541.667
232.32	213.636
232.69	418.182
233.07	714.286
233.44	323.077
233.81	-1833.333
234.19	284.211
234.56	483.333
234.93	400.000
235.31	436.364
235.68	284.615
236.05	350.000
236.43	215.152
236.80	289.474
237.17	4500.000
237.55	180.952
237.92	185.714
238.29	233.333
238.67	180.645
239.04	210.345
239.41	161.111
239.79	84.783
240.16	126.190
240.53	131.818
240.91	100.000
241.28	114.000
241.65	112.000
242.02	88.406
242.40	82.258
242.77	66.667
243.14	69.892
243.51	69.663
243.89	57.647
244.26	66.667
244.63	59.140
245.00	55.319
245.38	60.396
245.75	54.206
246.12	53.211
246.49	51.095
246.87	56.000
247.24	54.615
247.61	41.429
247.98	40.523
248.36	36.486
248.73	36.943
249.10	45.860
249.47	41.243
249.84	38.503
250.22	40.642
250.59	40.828
250.96	42.424
251.33	37.441
251.70	43.564
252.08	33.810
252.45	32.287
252.82	32.174
253.19	37.447
253.56	31.765
253.94	31.535
254.31	36.328
254.68	35.000
255.05	32.841
255.42	31.707
255.79	31.250
256.16	33.213
256.54	25.795
256.91	30.961
257.28	25.180
257.65	30.363
258.02	26.708
258.39	28.076
258.76	23.746
259.14	25.595
259.51	26.444
259.88	25.776
260.25	28.399
260.62	27.457
260.99	22.360
261.36	26.426
261.73	26.074
262.10	26.744
262.47	25.634
262.85	22.006
263.22	22.507
263.59	23.932
263.96	25.824
264.33	22.715
264.70	22.368
265.07	27.110
265.44	22.222
265.81	21.411
266.18	21.608
266.55	24.390
266.92	22.113
267.29	24.306
267.66	25.000
268.03	24.091
268.40	21.495
268.77	23.150
269.14	22.748
269.51	22.348
269.88	22.378
270.25	23.702
270.62	21.798
270.99	24.516
271.36	18.884
271.73	23.598
272.10	20.870
272.47	22.151
272.84	22.294
273.21	20.964
273.58	19.214
273.95	20.335
274.32	20.455
274.69	20.771
275.06	19.882
275.43	20.426
275.80	20.641
276.17	19.552
276.54	21.414
276.91	21.146
277.28	21.094
277.65	19.923
278.02	20.083
278.39	20.898
278.76	19.636
279.13	20.000
279.50	19.181
279.87	22.908
280.23	20.359
280.60	18.375
280.97	18.669
281.34	20.531
281.71	21.455
282.08	20.537
282.45	19.273
282.82	20.071
283.19	18.182
283.56	18.596
283.92	21.151
284.29	18.695
284.66	19.782
285.03	16.817
285.40	18.486
285.77	18.013
286.14	18.135
286.51	19.000
286.87	19.316
287.24	19.381
287.61	16.372
287.98	18.182
288.35	16.482
288.72	16.667
289.08	17.684
289.45	17.792
289.82	17.236
290.19	16.484
290.56	16.692
290.93	14.955
291.29	15.798
291.66	15.192
292.03	18.750
292.40	18.502
292.77	16.568
293.13	17.015
293.50	16.327
293.87	17.926
294.24	15.556
294.60	14.993
294.97	17.151
295.34	16.361
295.71	15.199
296.08	14.530
296.44	14.993
296.81	15.192
297.18	18.293
297.55	13.984
297.91	15.303
298.28	15.529
298.65	15.666
299.02	14.229
299.38	15.405
299.75	11.995
300.12	12.899
300.48	14.125
300.85	15.536
301.22	13.885
301.59	12.879
301.95	12.972
302.32	14.506
302.69	12.306
303.05	14.182
303.42	12.716
303.79	13.930
304.15	11.888
304.52	11.356
304.89	13.937
305.25	12.413
305.62	14.270
305.99	12.633
306.35	14.318
306.72	12.780
307.09	14.983
307.45	13.401
307.82	13.058
308.19	13.576
308.55	14.132
308.92	11.815
309.29	12.460
309.65	11.665
310.02	13.108
310.38	13.441
310.75	13.200
311.12	13.306
311.48	12.121
311.85	12.788
312.22	12.799
312.58	12.786
312.95	12.355
313.31	11.456
313.68	11.331
314.05	14.103
314.41	12.563
314.78	12.790
315.14	12.214
315.51	12.461
315.87	12.376
316.24	13.208
316.61	11.501
316.97	12.720
317.34	11.350
317.70	12.620
318.07	12.608
318.43	11.350
318.80	12.933
319.16	11.864
319.53	11.445
319.89	13.429
320.26	13.100
320.62	12.103
320.99	12.727
321.35	11.717
321.72	12.320
322.08	12.932
322.45	14.627
322.81	12.694
323.18	13.584
323.54	13.451
323.91	13.302
324.27	13.576
324.64	12.116
325.00	12.263
325.37	12.648
325.73	13.196
326.10	12.004
326.46	12.097
326.83	12.511
327.19	12.383
327.56	12.979
327.92	13.211
328.29	14.108
328.65	13.260
329.01	13.448
329.38	13.136
329.74	14.312
330.11	11.970
330.47	13.958
330.84	13.695
331.20	13.570
331.56	14.128
331.93	12.963
332.29	12.866
332.66	14.779
333.02	12.797
333.38	14.273
333.75	13.102
334.11	13.345
334.48	12.600
334.84	13.603
335.20	12.909
335.57	13.327
335.93	11.964
336.29	12.729
336.66	12.624
337.02	12.127
337.38	12.500
337.75	12.923
338.11	13.429
338.47	13.444
338.84	13.291
339.20	11.468
339.56	14.051
339.93	12.818
340.29	12.772
340.65	13.102
341.02	13.438
341.38	12.722
341.74	12.368
342.11	13.013
342.47	12.952
342.83	13.014
343.20	13.680
343.56	12.553
343.92	12.719
344.28	12.755
344.65	12.038
345.01	12.710
345.37	11.578
345.73	13.198
346.10	12.873
346.46	12.966
346.82	12.273
347.19	12.782
347.55	12.151
347.91	12.217
348.27	13.065
348.63	12.709
349.00	12.460
349.36	12.808
349.72	12.670
350.08	11.831
350.45	13.263
350.81	11.617
351.17	13.290
351.53	12.367
351.89	12.211
352.26	13.339
352.62	11.949
352.98	12.480
353.34	13.394
353.70	11.293
354.07	12.581
354.43	11.746
354.79	11.665
355.15	11.812
355.51	12.790
355.87	11.837
356.24	12.052
356.60	11.067
356.96	11.665
357.32	12.101
357.68	12.598
358.04	12.035
358.40	11.322
358.77	12.207
359.13	10.655
359.49	11.529
359.85	9.603
360.21	10.766
360.57	12.140
360.93	12.154
361.29	11.338
361.66	11.455
362.02	11.791
362.38	12.015
362.74	11.905
363.10	11.769
363.46	10.638
363.82	10.506
364.18	11.894
364.54	12.556
364.90	12.110
365.26	10.809
365.62	11.030
365.98	11.176
366.35	10.172
366.71	12.292
367.07	11.143
367.43	10.885
367.79	10.992
368.15	12.069
368.51	9.593
368.87	11.135
369.23	10.168
369.59	11.007
369.95	10.809
370.31	11.111
370.67	11.304
371.03	12.135
371.39	11.224
371.75	11.176
372.11	10.811
372.47	11.730
372.83	11.239
373.19	10.910
373.55	10.865
373.91	12.003
374.27	11.271
374.63	11.200
374.99	11.723
375.35	11.584
375.71	10.212
376.07	10.768
376.42	11.004
376.78	10.934
377.14	10.380
377.50	11.391
377.86	10.505
378.22	10.999
378.58	10.213
378.94	9.679
379.30	11.132
379.66	10.723
380.02	11.057
380.38	9.836
380.74	11.345
381.09	10.513
381.45	10.326
381.81	10.995
382.17	11.019
382.53	10.629
382.89	10.679
383.25	10.569
383.61	11.524
383.97	10.819
384.32	10.293
384.68	9.975
385.04	10.203
385.40	9.845
385.76	10.627
386.12	10.751
386.48	10.384
386.83	10.199
387.19	11.688
387.55	10.019
387.91	10.883
388.27	10.116
388.62	10.264
388.98	10.627
389.34	11.139
389.70	11.097
390.06	10.773
390.42	10.636
390.77	10.941
391.13	11.104
391.49	11.421
391.85	10.630
392.20	9.716
392.56	10.606
392.92	10.359
393.28	10.000
393.64	9.892
393.99	10.629
394.35	10.546
394.71	10.602
395.07	9.533
395.42	10.569
395.78	9.542
396.14	10.056
396.50	10.652
396.85	10.553
397.21	9.988
397.57	10.911
397.92	10.577
398.28	9.641
398.64	10.335
399.00	9.681
399.35	9.927
399.71	10.127
400.07	10.408
400.42	10.675
400.78	10.856
401.14	10.488
401.49	10.328
401.85	9.558
402.21	9.401
402.57	9.994
402.92	9.962
403.28	10.431
403.63	10.210
403.99	9.427
404.35	10.667
404.70	9.592
405.06	9.843
405.42	10.293
405.77	10.571
406.13	10.440
406.49	10.290
406.84	9.982
407.20	9.161
407.55	10.402
407.91	11.200
408.27	9.955
408.62	9.994
408.98	9.620
409.34	9.840
409.69	11.161
410.05	9.665
410.40	9.908
410.76	10.454
411.11	10.495
411.47	10.224
411.83	10.446
412.18	10.266
412.54	10.087
412.89	10.181
413.25	10.035
413.60	10.439
413.96	10.018
414.31	9.599
414.67	10.203
415.03	10.132
415.38	11.147
415.74	9.968
416.09	10.385
416.45	10.107
416.80	10.311
417.16	10.858
417.51	10.683
417.87	10.983
418.22	10.789
418.58	10.910
418.93	10.504
419.29	9.930
419.64	10.390
420.00	10.122
420.35	10.493
420.71	10.879
421.06	10.382
421.42	10.526
421.77	10.202
422.12	9.714
422.48	9.768
422.83	10.076
423.19	10.331
423.54	10.157
423.90	10.609
424.25	9.994
424.61	10.000
424.96	10.496
425.31	10.742
425.67	10.337
426.02	10.571
426.38	10.379
426.73	9.830
427.09	10.091
427.44	10.638
427.79	10.466
428.15	10.833
428.50	10.298
428.85	10.667
429.21	9.166
429.56	9.642
429.92	9.965
430.27	9.633
430.62	9.882
430.98	9.549
431.33	9.948
431.68	10.000
432.04	10.650
432.39	10.166
432.74	10.592
433.10	10.017
433.45	10.962
433.80	9.645
434.16	9.669
434.51	9.474
434.86	10.661
435.22	10.006
435.57	9.240
435.92	10.357
436.28	10.735
436.63	11.093
436.98	10.475
437.34	10.495
437.69	10.910
438.04	9.893
438.39	10.806
438.75	10.575
439.10	10.559
439.45	10.390
439.81	10.030
440.16	9.825
440.51	10.955
440.86	10.249
441.22	10.178
441.57	9.873
441.92	9.928
442.27	10.280
442.63	9.531
442.98	10.310
443.33	10.217
443.68	10.428
444.03	10.054
444.39	9.932
444.74	10.552
445.09	10.674
445.44	10.224
445.79	10.539
446.15	10.323
446.50	10.501
446.85	9.815
447.20	9.995
447.55	10.106
447.91	9.653
448.26	9.794
448.61	10.175
448.96	10.742
449.31	10.236
449.66	10.692
450.02	9.694
450.37	9.467
450.72	9.983
451.07	10.299
451.42	10.030
451.77	11.450
452.12	10.393
452.47	9.950
452.83	9.965
453.18	10.513
453.53	10.637
453.88	10.396
454.23	11.237
454.58	10.660
454.93	11.252
455.28	10.037
455.63	11.104
455.98	11.012
456.34	10.741
456.69	10.269
457.04	10.836
457.39	9.819
457.74	10.911
458.09	10.063
458.44	10.832
458.79	9.816
459.14	11.230
459.49	11.267
459.84	10.803
460.19	10.371
460.54	10.243
460.89	10.806
461.24	9.836
461.59	12.260
461.94	11.036
462.29	11.335
462.64	10.593
462.99	11.386
463.34	11.467
463.69	11.132
464.04	11.594
464.39	10.783
464.74	11.289
465.09	10.796
465.44	10.582
465.79	10.403
466.14	11.111
466.49	10.790
466.84	11.267
467.19	10.923
467.54	11.188
467.89	10.084
468.24	10.413
468.59	10.989
468.94	10.690
469.29	11.632
469.64	11.580
469.99	10.758
470.34	10.172
470.68	11.782
471.03	11.224
471.38	11.744
471.73	11.392
472.08	11.053
472.43	10.867
472.78	10.336
473.13	11.232
473.48	11.236
473.83	10.732
474.17	10.205
474.52	10.732
474.87	11.734
475.22	10.853
475.57	11.069
475.92	10.568
476.27	11.048
476.61	10.425
476.96	10.720
477.31	10.518
477.66	10.175
478.01	10.141
478.36	10.418
478.70	10.488
479.05	10.330
479.40	10.594
479.75	10.727
480.10	10.487
480.45	10.519
480.79	9.938
481.14	10.763
481.49	10.062
481.84	10.242
482.19	9.768
482.53	10.872
482.88	11.168
483.23	10.280
483.58	10.146
483.92	10.309
484.27	9.499
484.62	10.345
484.97	9.657
485.31	9.726
485.66	8.284
486.01	7.793
486.36	7.461
486.70	7.980
487.05	8.502
487.40	8.810
487.75	8.927
488.09	9.948
488.44	9.773
488.79	9.946
489.13	9.626
489.48	9.951
489.83	9.495
490.17	9.908
490.52	10.275
490.87	9.860
491.22	9.732
491.56	9.977
491.91	10.470
492.26	10.014
492.60	10.369
492.95	9.682
493.30	9.766
493.64	9.426
493.99	9.889
494.34	10.453
494.68	10.302
495.03	10.667
495.37	10.098
495.72	10.673
496.07	10.209
496.41	9.779
496.76	10.334
497.11	9.680
497.45	10.014
497.80	10.365
498.14	10.000
498.49	10.390
498.84	11.361
499.18	10.238
499.53	9.924
499.87	10.438
500.22	10.457
500.56	10.874
500.91	10.096
501.26	10.100
501.60	10.584
501.95	10.403
502.29	10.075
502.64	9.870
502.98	10.051
503.33	10.146
503.67	9.977
504.02	10.430
504.36	10.856
504.71	10.064
505.06	10.843
505.40	10.063
505.75	9.884
506.09	10.204
506.44	10.705
506.78	10.765
507.13	10.803
507.47	11.111
507.82	11.145
508.16	10.942
508.51	10.299
508.85	10.725
509.19	11.071
509.54	10.000
509.88	10.355
510.23	10.386
510.57	11.404
510.92	10.875
511.26	10.226
511.61	10.944
511.95	10.595
512.30	10.127
512.64	10.747
512.98	10.772
513.33	11.028
513.67	11.046
514.02	10.011
514.36	10.650
514.70	10.515
515.05	10.653
515.39	11.049
515.74	10.529
516.08	10.900
516.42	11.043
516.77	11.706
517.11	10.988
517.46	11.005
517.80	10.976
518.14	10.886
518.49	11.377
518.83	11.023
519.17	11.490
519.52	10.300
519.86	11.067
520.20	11.850
520.55	11.550
520.89	12.044
521.23	11.399
521.58	11.104
521.92	11.513
522.26	10.738
522.61	11.464
522.95	11.664
523.29	11.077
523.64	12.073
523.98	11.768
524.32	12.002
524.66	10.884
525.01	11.581
525.35	10.967
525.69	11.084
526.04	12.087
526.38	10.555
526.72	12.086
527.06	12.367
527.41	11.200
527.75	11.704
528.09	11.368
528.43	11.855
528.78	11.739
529.12	11.697
529.46	11.941
529.80	11.510
530.15	12.212
530.49	12.246
530.83	11.392
531.17	12.206
531.51	12.062
531.86	11.548
532.20	12.190
532.54	12.748
532.88	11.489
533.22	10.493
533.57	12.037
533.91	11.921
534.25	11.786
534.59	10.921
534.93	11.243
535.27	11.587
535.62	11.966
535.96	12.492
536.30	11.443
536.64	12.041
536.98	13.404
537.32	11.916
537.66	11.667
538.01	11.652
538.35	13.122
538.69	12.380
539.03	11.631
539.37	11.693
539.71	10.823
540.05	11.699
540.39	11.894
540.73	12.160
541.07	11.940
541.42	12.851
541.76	12.065
542.10	12.160
542.44	12.053
542.78	12.253
543.12	10.621
543.46	12.328
543.80	12.232
544.14	11.489
544.48	12.127
544.82	10.904
545.16	12.167
545.50	12.853
545.84	12.097
546.18	11.919
546.52	12.595
546.86	11.546
547.20	12.407
547.54	12.558
547.88	12.628
548.22	11.582
548.56	11.887
548.90	11.908
549.24	11.852
549.58	13.097
549.92	12.431
550.26	12.500
550.60	11.895
550.94	12.465
551.28	10.900
551.62	13.300
551.96	12.281
552.30	13.174
552.64	12.644
552.98	12.881
553.32	13.284
553.66	13.497
554.00	12.491
554.34	11.801
554.68	13.305
555.02	11.918
555.36	12.457
555.69	12.720
556.03	12.315
556.37	11.050
556.71	12.074
557.05	12.325
557.39	12.736
557.73	12.562
558.07	12.763
558.41	12.518
558.75	12.785
559.08	12.901
559.42	13.001
559.76	13.382
560.10	12.634
560.44	12.159
560.78	11.643
561.12	12.665
561.45	12.516
561.79	12.129
562.13	12.542
562.47	12.705
562.81	12.064
563.15	11.973
563.48	12.268
563.82	12.264
564.16	11.249
564.50	10.352
564.84	11.884
565.17	11.068
565.51	11.949
565.85	11.675
566.19	11.209
566.52	11.970
566.86	11.272
567.20	11.792
567.54	11.530
567.88	10.266
568.21	10.899
568.55	10.920
568.89	11.187
569.23	10.873
569.56	10.324
569.90	10.226
570.24	9.724
570.57	9.147
570.91	9.470
571.25	9.327
571.59	9.838
571.92	9.447
572.26	9.157
572.60	10.210
572.93	9.445
573.27	9.701
573.61	9.659
573.95	10.052
574.28	9.095
574.62	9.257
574.96	9.128
575.29	9.239
575.63	9.451
575.97	9.268
576.30	9.214
576.64	9.502
576.98	9.212
577.31	9.127
577.65	9.012
577.98	8.967
578.32	8.896
578.66	9.036
578.99	9.336
579.33	9.247
579.67	9.049
580.00	9.422
580.34	9.326
580.67	9.194
581.01	9.220
581.35	9.143
581.68	8.815
582.02	8.623
582.35	8.680
582.69	9.058
583.02	8.998
583.36	9.223
583.70	9.790
584.03	9.796
584.37	9.960
584.70	9.457
585.04	9.393
585.37	9.390
585.71	9.445
586.04	9.133
586.38	9.195
586.72	9.666
587.05	9.671
587.39	8.892
587.72	9.353
588.06	9.418
588.39	9.712
588.73	9.358
589.06	10.190
589.40	9.731
589.73	9.996
590.07	9.715
590.40	9.536
590.73	10.461
591.07	10.948
591.40	10.502
591.74	11.082
592.07	10.646
592.41	10.624
592.74	10.112
593.08	9.760
593.41	9.649
593.75	9.681
594.08	9.856
594.41	10.039
594.75	10.018
595.08	10.200
595.42	10.683
595.75	10.363
596.09	10.439
596.42	10.648
596.75	10.933
597.09	10.649
597.42	10.202
597.75	10.737
598.09	10.696
598.42	10.696
598.76	10.134
599.09	10.072
599.42	9.534
599.76	10.066
600.09	9.763
600.42	9.788
600.76	9.571
601.09	9.690
601.42	9.817
601.76	10.892
602.09	10.435
602.42	10.947
602.76	11.044
603.09	10.779
603.42	10.543
603.76	9.756
604.09	10.081
604.42	10.151
604.76	10.966
605.09	10.660
605.42	10.389
605.75	10.182
606.09	10.207
606.42	10.135
606.75	10.535
607.09	10.590
607.42	10.312
607.75	10.464
608.08	10.030
608.42	11.206
608.75	10.730
609.08	10.731
609.41	11.090
609.75	10.815
610.08	11.310
610.41	10.382
610.74	10.454
611.07	10.820
611.41	10.697
611.74	10.960
612.07	10.870
612.40	11.280
612.73	11.632
613.07	11.692
613.40	11.427
613.73	10.488
614.06	10.538
614.39	11.851
614.72	11.158
615.06	11.765
615.39	10.775
615.72	11.094
616.05	10.739
616.38	10.784
616.71	11.401
617.05	11.249
617.38	10.704
617.71	10.871
618.04	10.998
618.37	10.999
618.70	11.077
619.03	12.237
619.36	11.948
619.69	12.606
620.03	12.294
620.36	11.832
620.69	12.671
621.02	13.053
621.35	12.138
621.68	12.383
622.01	12.152
622.34	12.784
622.67	12.015
623.00	11.665
623.33	11.508
623.66	11.365
623.99	12.003
624.32	11.484
624.65	12.288
624.99	11.119
625.32	11.875
625.65	11.871
625.98	12.375
626.31	12.597
626.64	13.388
626.97	12.219
627.30	13.549
627.63	13.372
627.96	13.625
628.29	13.736
628.62	13.175
628.95	15.377
629.28	13.412
629.61	14.115
629.94	13.714
630.26	13.727
630.59	13.632
630.92	12.165
631.25	12.833
631.58	13.814
631.91	13.590
632.24	13.713
632.57	14.166
632.90	13.596
633.23	14.541
633.56	15.254
633.89	15.062
634.22	13.734
634.55	15.740
