SpectraSuite Data File
++++++++++++++++++++++++++++++++++++
Date: Wed May 13 19:50:34 PDT 2015
User: schluterlab
Dark Spectrum Present: Yes
Reference Spectrum Present: Yes
Number of Sampled Component Spectra: 1
Spectrometers: USB2E3373
Integration Time (usec): 3000 (USB2E3373)
Spectra Averaged: 3 (USB2E3373)
Boxcar Smoothing: 0 (USB2E3373)
Correct for Electrical Dark: No (USB2E3373)
Strobe/Lamp Enabled: No (USB2E3373)
Correct for Detector Non-linearity: No (USB2E3373)
Correct for Stray Light: No (USB2E3373)
Number of Pixels in Processed Spectrum: 2048
>>>>>Begin Processed Spectral Data<<<<<
178.53	0.000
178.91	-1500.000
179.29	-1425.000
179.67	-255.556
180.04	-1400.000
180.42	2350.000
180.80	1040.000
181.18	-1100.000
181.56	728.571
181.94	0.000
182.31	-642.857
182.69	2033.333
183.07	-650.000
183.45	-622.222
183.83	527.273
184.20	-510.000
184.58	2350.000
184.96	5900.000
185.34	-920.000
185.72	-700.000
186.09	-3050.000
186.47	2450.000
186.85	2300.000
187.23	6000.000
187.61	-1933.333
187.98	1525.000
188.36	563.636
188.74	554.545
189.12	-840.000
189.49	660.000
189.87	-5500.000
190.25	-1375.000
190.63	378.571
191.00	500.000
191.38	950.000
191.76	-1225.000
192.14	1400.000
192.51	575.000
192.89	900.000
193.27	650.000
193.65	-1450.000
194.02	500.000
194.40	1040.000
194.78	590.000
195.15	441.667
195.53	740.000
195.91	-2550.000
196.29	362.500
196.66	294.737
197.04	-260.000
197.42	0.000
197.79	660.000
198.17	-5200.000
198.55	742.857
198.92	875.000
199.30	1120.000
199.68	0.000
200.05	366.667
200.43	700.000
200.81	5500.000
201.18	1766.667
201.56	-1966.667
201.94	633.333
202.31	711.111
202.69	375.000
203.07	570.000
203.44	0.000
203.82	1250.000
204.19	871.429
204.57	492.857
204.95	712.500
205.32	1766.667
205.70	536.364
206.08	385.714
206.45	2750.000
206.83	443.750
207.20	800.000
207.58	800.000
207.96	333.333
208.33	700.000
208.71	-783.333
209.08	900.000
209.46	555.556
209.84	581.818
210.21	-1466.667
210.59	1525.000
210.96	-475.000
211.34	2650.000
211.71	600.000
212.09	1000.000
212.46	0.000
212.84	1866.667
213.22	1350.000
213.59	-4000.000
213.97	950.000
214.34	900.000
214.72	636.364
215.09	1120.000
215.47	-2250.000
215.84	-3300.000
216.22	1933.333
216.59	407.143
216.97	1425.000
217.34	463.636
217.72	-850.000
218.09	0.000
218.47	-5100.000
218.84	711.111
219.22	828.571
219.59	2000.000
219.97	-614.286
220.34	980.000
220.72	-1766.667
221.09	414.286
221.47	1450.000
221.84	-900.000
222.22	0.000
222.59	1325.000
222.97	-2700.000
223.34	1180.000
223.72	430.769
224.09	1100.000
224.46	1850.000
224.84	-5200.000
225.21	-1180.000
225.59	-5600.000
225.96	650.000
226.34	350.000
226.71	2750.000
227.08	637.500
227.46	570.000
227.83	-1175.000
228.21	-2550.000
228.58	644.444
228.95	-2400.000
229.33	-2850.000
229.70	1766.667
230.08	1000.000
230.45	-860.000
230.82	475.000
231.20	766.667
231.57	742.857
231.95	491.667
232.32	263.636
232.69	409.091
233.07	785.714
233.44	407.692
233.81	-1733.333
234.19	347.368
234.56	433.333
234.93	441.667
235.31	390.909
235.68	353.846
236.05	414.286
236.43	218.182
236.80	289.474
237.17	4300.000
237.55	257.143
237.92	200.000
238.29	285.714
238.67	196.774
239.04	186.207
239.41	158.333
239.79	121.739
240.16	145.238
240.53	147.727
240.91	84.314
241.28	108.000
241.65	112.000
242.02	113.043
242.40	80.645
242.77	101.667
243.14	75.269
243.51	85.393
243.89	67.059
244.26	83.333
244.63	70.968
245.00	68.085
245.38	67.327
245.75	58.879
246.12	66.055
246.49	64.964
246.87	63.200
247.24	59.231
247.61	60.000
247.98	50.980
248.36	48.649
248.73	52.229
249.10	53.503
249.47	45.198
249.84	50.802
250.22	48.663
250.59	46.154
250.96	47.475
251.33	50.237
251.70	51.485
252.08	49.048
252.45	41.256
252.82	41.739
253.19	47.234
253.56	45.490
253.94	40.664
254.31	41.797
254.68	42.308
255.05	38.376
255.42	37.398
255.79	40.809
256.16	41.155
256.54	34.982
256.91	35.587
257.28	34.173
257.65	38.284
258.02	37.267
258.39	32.177
258.76	37.458
259.14	32.440
259.51	34.650
259.88	29.193
260.25	35.347
260.62	29.769
260.99	31.988
261.36	34.835
261.73	32.378
262.10	29.942
262.47	35.211
262.85	30.919
263.22	29.345
263.59	35.328
263.96	31.044
264.33	30.809
264.70	32.368
265.07	29.668
265.44	31.061
265.81	28.954
266.18	32.915
266.55	28.780
266.92	29.975
267.29	31.944
267.66	29.358
268.03	31.364
268.40	29.439
268.77	26.253
269.14	30.180
269.51	30.474
269.88	31.002
270.25	27.991
270.62	29.663
270.99	29.677
271.36	27.039
271.73	28.505
272.10	27.174
272.47	28.387
272.84	27.489
273.21	26.834
273.58	24.891
273.95	23.270
274.32	26.446
274.69	26.552
275.06	27.362
275.43	26.809
275.80	29.259
276.17	27.902
276.54	28.482
276.91	25.494
277.28	26.563
277.65	29.207
278.02	27.950
278.39	28.125
278.76	26.909
279.13	24.717
279.50	26.816
279.87	24.303
280.23	26.547
280.60	27.660
280.97	25.508
281.34	25.487
281.71	28.182
282.08	26.296
282.45	24.727
282.82	25.400
283.19	22.816
283.56	25.965
283.92	26.904
284.29	25.926
284.66	22.686
285.03	26.763
285.40	25.528
285.77	24.242
286.14	25.043
286.51	22.833
286.87	27.179
287.24	25.081
287.61	23.435
287.98	23.701
288.35	23.930
288.72	23.832
289.08	25.039
289.45	22.241
289.82	23.577
290.19	21.978
290.56	21.746
290.93	22.961
291.29	25.000
291.66	22.566
292.03	23.401
292.40	22.467
292.77	21.450
293.13	23.134
293.50	21.283
293.87	21.333
294.24	19.407
294.60	21.252
294.97	20.494
295.34	23.272
295.71	21.165
296.08	18.803
296.44	19.670
296.81	19.419
297.18	22.358
297.55	18.074
297.91	19.525
298.28	21.419
298.65	18.668
299.02	20.290
299.38	19.920
299.75	17.925
300.12	17.880
300.48	19.250
300.85	19.112
301.22	18.599
301.59	17.045
301.95	20.655
302.32	19.255
302.69	17.802
303.05	18.182
303.42	18.519
303.79	18.800
304.15	16.783
304.52	17.381
304.89	15.563
305.25	16.821
305.62	18.347
305.99	18.890
306.35	18.680
306.72	17.825
307.09	18.091
307.45	18.694
307.82	16.071
308.19	18.543
308.55	18.662
308.92	16.649
309.29	16.051
309.65	17.285
310.02	18.288
310.38	18.172
310.75	17.001
311.12	17.810
311.48	17.973
311.85	18.029
312.22	17.170
312.58	16.216
312.95	19.007
313.31	16.019
313.68	17.983
314.05	19.724
314.41	17.588
314.78	16.717
315.14	16.584
315.51	17.817
315.87	17.624
316.24	16.485
316.61	16.374
316.97	16.830
317.34	15.460
317.70	17.878
318.07	17.421
318.43	16.830
318.80	17.994
319.16	16.949
319.53	17.636
319.89	17.143
320.26	16.700
320.62	17.262
320.99	17.273
321.35	17.374
321.72	17.967
322.08	18.460
322.45	18.806
322.81	17.345
323.18	18.786
323.54	17.718
323.91	16.887
324.27	18.069
324.64	15.843
325.00	16.411
325.37	17.652
325.73	18.402
326.10	18.094
326.46	16.577
326.83	18.464
327.19	17.336
327.56	17.073
327.92	17.148
328.29	17.569
328.65	18.048
329.01	16.787
329.38	16.836
329.74	18.929
330.11	16.305
330.47	17.172
330.84	18.474
331.20	16.758
331.56	16.606
331.93	17.963
332.29	17.480
332.66	18.053
333.02	16.088
333.38	16.441
333.75	17.647
334.11	16.014
334.48	16.504
334.84	15.901
335.20	17.364
335.57	16.500
335.93	16.161
336.29	16.758
336.66	15.870
337.02	16.290
337.38	15.926
337.75	16.578
338.11	17.368
338.47	16.851
338.84	16.499
339.20	14.587
339.56	16.515
339.93	14.909
340.29	15.217
340.65	16.310
341.02	16.318
341.38	15.836
341.74	14.386
342.11	15.983
342.47	16.476
342.83	15.839
343.20	15.931
343.56	15.754
343.92	15.965
344.28	16.582
344.65	15.477
345.01	15.320
345.37	15.952
345.73	16.497
346.10	16.539
346.46	15.000
346.82	15.239
347.19	15.205
347.55	14.943
347.91	15.777
348.27	16.927
348.63	15.301
349.00	14.239
349.36	14.943
349.72	15.076
350.08	15.154
350.45	15.297
350.81	15.922
351.17	15.721
351.53	14.660
351.89	14.521
352.26	17.048
352.62	15.397
352.98	16.288
353.34	15.201
353.70	16.121
354.07	15.887
354.43	14.683
354.79	14.883
355.15	14.366
355.51	15.508
355.87	14.857
356.24	15.147
356.60	14.274
356.96	15.447
357.32	14.800
357.68	15.039
358.04	14.806
358.40	15.044
358.77	15.415
359.13	14.759
359.49	15.137
359.85	13.810
360.21	14.673
360.57	15.486
360.93	15.385
361.29	14.437
361.66	13.932
362.02	15.000
362.38	14.981
362.74	15.253
363.10	13.397
363.46	14.894
363.82	14.059
364.18	14.391
364.54	15.379
364.90	14.731
365.26	13.603
365.62	14.317
365.98	13.806
366.35	13.109
366.71	14.461
367.07	14.639
367.43	14.804
367.79	14.704
368.15	15.445
368.51	13.009
368.87	13.490
369.23	14.119
369.59	13.541
369.95	12.647
370.31	14.245
370.67	13.841
371.03	14.682
371.39	13.411
371.75	13.235
372.11	13.442
372.47	14.443
372.83	13.977
373.19	14.306
373.55	14.265
373.91	14.875
374.27	13.814
374.63	12.873
374.99	14.548
375.35	13.747
375.71	13.639
376.07	14.129
376.42	14.099
376.78	13.718
377.14	13.569
377.50	13.576
377.86	12.766
378.22	13.717
378.58	12.594
378.94	13.451
379.30	13.041
379.66	12.881
380.02	13.329
380.38	12.750
380.74	13.685
381.09	14.425
381.45	13.768
381.81	13.575
382.17	12.803
382.53	13.585
382.89	13.765
383.25	13.071
383.61	13.507
383.97	13.196
384.32	13.163
384.68	12.577
385.04	13.030
385.40	12.693
385.76	12.899
386.12	13.018
386.48	13.971
386.83	13.855
387.19	14.286
387.55	13.420
387.91	12.757
388.27	12.753
388.62	13.645
388.98	12.776
389.34	13.454
389.70	12.876
390.06	13.308
390.42	12.581
390.77	13.422
391.13	12.891
391.49	13.706
391.85	13.304
392.20	12.114
392.56	12.689
392.92	12.537
393.28	11.479
393.64	12.350
393.99	12.828
394.35	13.213
394.71	12.547
395.07	12.150
395.42	13.350
395.78	13.486
396.14	13.532
396.50	14.160
396.85	12.778
397.21	12.392
397.57	13.267
397.92	12.861
398.28	12.108
398.64	13.082
399.00	12.591
399.35	12.239
399.71	12.905
400.07	13.365
400.42	13.681
400.78	13.088
401.14	12.439
401.49	11.821
401.85	12.644
402.21	12.934
402.57	13.140
402.92	12.736
403.28	12.992
403.63	12.624
403.99	12.420
404.35	12.848
404.70	11.811
405.06	12.638
405.42	11.978
405.77	12.514
406.13	12.020
406.49	12.360
406.84	12.758
407.20	12.175
407.55	11.870
407.91	12.933
408.27	12.572
408.62	12.643
408.98	13.051
409.34	12.300
409.69	12.774
410.05	12.082
410.40	12.232
410.76	12.186
411.11	13.390
411.47	12.141
411.83	12.462
412.18	12.430
412.54	12.702
412.89	12.771
413.25	12.220
413.60	12.909
413.96	12.933
414.31	13.123
414.67	12.611
415.03	12.119
415.38	13.144
415.74	13.119
416.09	13.063
416.45	12.316
416.80	13.417
417.16	14.008
417.51	12.143
417.87	12.781
418.22	12.492
418.58	13.105
418.93	12.838
419.29	13.049
419.64	13.287
420.00	13.659
420.35	13.101
420.71	12.732
421.06	12.589
421.42	13.158
421.77	12.836
422.12	12.072
422.48	12.196
422.83	12.231
423.19	12.652
423.54	12.710
423.90	13.101
424.25	12.786
424.61	12.500
424.96	12.070
425.31	13.012
425.67	12.584
426.02	12.971
426.38	13.370
426.73	12.756
427.09	12.340
427.44	12.708
427.79	12.651
428.15	13.095
428.50	12.522
428.85	13.170
429.21	12.314
429.56	11.664
429.92	12.129
430.27	11.519
430.62	11.265
430.98	11.884
431.33	11.701
431.68	12.356
432.04	12.833
432.39	12.107
432.74	12.507
433.10	12.054
433.45	12.362
433.80	12.084
434.16	12.286
434.51	12.474
434.86	12.828
435.22	12.285
435.57	12.158
435.92	12.112
436.28	13.879
436.63	12.914
436.98	12.135
437.34	13.059
437.69	12.602
438.04	11.804
438.39	12.657
438.75	13.481
439.10	12.682
439.45	12.869
439.81	12.266
440.16	12.309
440.51	12.127
440.86	12.044
441.22	12.236
441.57	12.580
441.92	12.641
442.27	12.271
442.63	12.586
442.98	13.239
443.33	12.989
443.68	12.235
444.03	12.396
444.39	11.198
444.74	12.013
445.09	12.561
445.44	12.685
445.79	12.815
446.15	12.652
446.50	12.170
446.85	12.384
447.20	12.290
447.55	12.451
447.91	12.741
448.26	12.298
448.61	11.645
448.96	12.735
449.31	13.273
449.66	12.155
450.02	12.145
450.37	12.868
450.72	12.578
451.07	12.675
451.42	12.280
451.77	12.918
452.12	13.453
452.47	13.433
452.83	12.821
453.18	12.592
453.53	13.544
453.88	12.581
454.23	12.851
454.58	13.144
454.93	13.287
455.28	12.219
455.63	12.803
455.98	13.512
456.34	13.003
456.69	13.024
457.04	11.950
457.39	12.449
457.74	12.246
458.09	13.283
458.44	12.828
458.79	12.364
459.14	13.205
459.49	11.851
459.84	12.410
460.19	13.200
460.54	11.748
460.89	12.671
461.24	12.872
461.59	13.248
461.94	12.577
462.29	13.056
462.64	12.891
462.99	12.687
463.34	14.400
463.69	13.258
464.04	13.855
464.39	12.870
464.74	13.369
465.09	12.425
465.44	12.576
465.79	12.304
466.14	12.589
466.49	12.458
466.84	12.668
467.19	13.579
467.54	12.813
467.89	12.845
468.24	12.798
468.59	12.943
468.94	12.951
469.29	13.046
469.64	13.855
469.99	13.058
470.34	12.550
470.68	13.434
471.03	13.469
471.38	13.829
471.73	13.391
472.08	13.750
472.43	12.814
472.78	13.627
473.13	13.222
473.48	13.358
473.83	13.049
474.17	12.694
474.52	13.089
474.87	13.310
475.22	12.885
475.57	12.144
475.92	12.215
476.27	12.289
476.61	12.796
476.96	12.754
477.31	12.611
477.66	12.856
478.01	12.232
478.36	12.639
478.70	12.513
479.05	12.194
479.40	12.794
479.75	12.049
480.10	12.575
480.45	12.423
480.79	11.706
481.14	12.671
481.49	12.340
481.84	11.843
482.19	11.813
482.53	12.294
482.88	11.866
483.23	11.682
483.58	12.921
483.92	12.371
484.27	10.937
484.62	11.681
484.97	11.115
485.31	11.610
485.66	10.398
486.01	10.133
486.36	9.813
486.70	9.608
487.05	10.262
487.40	10.470
487.75	10.761
488.09	10.798
488.44	11.341
488.79	11.609
489.13	11.841
489.48	12.113
489.83	11.826
490.17	11.881
490.52	11.736
490.87	11.488
491.22	11.642
491.56	11.936
491.91	11.633
492.26	12.265
492.60	12.166
492.95	11.693
493.30	11.822
493.64	12.039
493.99	11.513
494.34	11.795
494.68	12.408
495.03	12.594
495.37	12.192
495.72	11.550
496.07	12.065
496.41	12.168
496.76	11.522
497.11	12.292
497.45	12.156
497.80	11.996
498.14	11.498
498.49	12.049
498.84	12.800
499.18	11.810
499.53	12.061
499.87	11.883
500.22	11.964
500.56	12.767
500.91	11.442
501.26	11.901
501.60	12.957
501.95	11.870
502.29	12.277
502.64	12.430
502.98	11.688
503.33	11.609
503.67	11.972
504.02	11.366
504.36	12.401
504.71	11.920
505.06	12.337
505.40	12.397
505.75	11.427
506.09	12.051
506.44	11.643
506.78	11.739
507.13	12.216
507.47	12.273
507.82	12.209
508.16	11.499
508.51	12.430
508.85	12.066
509.19	12.398
509.54	11.990
509.88	12.365
510.23	12.134
510.57	12.693
510.92	12.429
511.26	12.025
511.61	12.293
511.95	11.691
512.30	12.513
512.64	12.466
512.98	12.755
513.33	11.831
513.67	12.433
514.02	11.742
514.36	12.452
514.70	12.839
515.05	12.214
515.39	12.507
515.74	12.218
516.08	13.862
516.42	12.597
516.77	13.545
517.11	11.765
517.46	12.867
517.80	13.008
518.14	12.218
518.49	12.310
518.83	12.273
519.17	12.356
519.52	13.073
519.86	13.006
520.20	13.237
520.55	13.106
520.89	12.956
521.23	12.907
521.58	13.325
521.92	13.350
522.26	12.935
522.61	12.648
522.95	12.769
523.29	12.599
523.64	13.780
523.98	13.185
524.32	13.148
524.66	12.568
525.01	13.787
525.35	12.454
525.69	12.869
526.04	13.022
526.38	12.691
526.72	13.067
527.06	13.622
527.41	13.366
527.75	12.733
528.09	12.974
528.43	13.066
528.78	13.645
529.12	12.667
529.46	13.288
529.80	13.800
530.15	13.520
530.49	12.492
530.83	13.354
531.17	13.512
531.51	14.267
531.86	13.290
532.20	14.211
532.54	14.286
532.88	13.864
533.22	13.242
533.57	13.086
533.91	13.064
534.25	12.880
534.59	12.935
534.93	12.552
535.27	13.277
535.62	13.797
535.96	13.936
536.30	13.096
536.64	14.037
536.98	13.603
537.32	13.496
537.66	13.067
538.01	13.627
538.35	13.381
538.69	14.040
539.03	12.606
539.37	12.971
539.71	11.860
540.05	13.203
540.39	13.023
540.73	13.907
541.07	13.757
541.42	13.438
541.76	13.935
542.10	14.036
542.44	12.649
542.78	13.439
543.12	12.668
543.46	13.180
543.80	14.053
544.14	13.222
544.48	13.841
544.82	13.021
545.16	12.622
545.50	12.853
545.84	13.978
546.18	14.141
546.52	13.696
546.86	14.089
547.20	13.823
547.54	13.694
547.88	13.712
548.22	13.138
548.56	13.333
548.90	13.316
549.24	12.997
549.58	13.984
549.92	13.530
550.26	14.063
550.60	13.278
550.94	13.732
551.28	13.168
551.62	13.803
551.96	13.193
552.30	13.720
552.64	14.402
552.98	14.169
553.32	14.767
553.66	14.179
554.00	14.070
554.34	13.872
554.68	14.449
555.02	12.835
555.36	13.361
555.69	12.991
556.03	12.853
556.37	14.529
556.71	12.551
557.05	13.866
557.39	13.506
557.73	14.185
558.07	13.270
558.41	13.965
558.75	14.107
559.08	14.616
559.42	14.210
559.76	14.412
560.10	13.348
560.44	14.116
560.78	13.307
561.12	13.918
561.45	13.755
561.79	13.052
562.13	13.682
562.47	13.251
562.81	13.110
563.15	13.244
563.48	14.589
563.82	13.764
564.16	12.819
564.50	13.477
564.84	13.464
565.17	13.063
565.51	13.163
565.85	13.135
566.19	12.649
566.52	12.856
566.86	12.598
567.20	13.561
567.54	12.957
567.88	12.439
568.21	12.487
568.55	12.740
568.89	11.819
569.23	12.255
569.56	11.498
569.90	11.698
570.24	10.980
570.57	11.391
570.91	10.924
571.25	10.840
571.59	11.311
571.92	11.233
572.26	10.976
572.60	11.021
572.93	10.945
573.27	11.387
573.61	11.390
573.95	11.034
574.28	10.503
574.62	10.617
574.96	10.442
575.29	10.790
575.63	10.544
575.97	10.778
576.30	11.179
576.64	10.614
576.98	10.744
577.31	10.328
577.65	10.185
577.98	10.495
578.32	10.306
578.66	10.314
578.99	10.660
579.33	10.312
579.67	10.265
580.00	10.429
580.34	10.869
580.67	10.801
581.01	11.176
581.35	10.472
581.68	10.433
582.02	10.110
582.35	10.307
582.69	10.460
583.02	10.525
583.36	11.137
583.70	10.689
584.03	11.050
584.37	11.252
584.70	10.789
585.04	11.081
585.37	10.857
585.71	10.902
586.04	10.727
586.38	11.233
586.72	11.240
587.05	10.812
587.39	10.580
587.72	11.131
588.06	11.313
588.39	10.947
588.73	10.854
589.06	11.156
589.40	11.448
589.73	11.756
590.07	11.317
590.40	11.545
590.73	11.710
591.07	12.251
591.40	12.062
591.74	12.165
592.07	11.780
592.41	12.195
592.74	11.910
593.08	11.193
593.41	11.072
593.75	10.525
594.08	11.063
594.41	12.018
594.75	11.054
595.08	11.417
595.42	11.313
595.75	11.075
596.09	12.054
596.42	12.141
596.75	11.650
597.09	12.900
597.42	11.551
597.75	11.600
598.09	12.304
598.42	11.383
598.76	11.471
599.09	11.365
599.42	11.317
599.76	11.859
600.09	11.257
600.42	10.738
600.76	10.679
601.09	11.621
601.42	11.644
601.76	11.537
602.09	11.818
602.42	12.062
602.76	11.931
603.09	11.251
603.42	12.183
603.76	11.204
604.09	11.439
604.42	11.741
604.76	12.315
605.09	12.189
605.42	11.928
605.75	11.879
606.09	11.753
606.42	11.279
606.75	11.779
607.09	11.972
607.42	11.896
607.75	11.139
608.08	11.116
608.42	12.013
608.75	11.632
609.08	12.026
609.41	11.709
609.75	12.244
610.08	12.300
610.41	11.499
610.74	11.637
611.07	11.858
611.41	12.807
611.74	13.273
612.07	12.371
612.40	12.172
612.73	12.421
613.07	12.823
613.40	12.744
613.73	11.536
614.06	12.151
614.39	12.900
614.72	12.789
615.06	12.658
615.39	11.783
615.72	12.372
616.05	11.749
616.38	12.396
616.71	13.361
617.05	13.310
617.38	12.508
617.71	12.733
618.04	12.800
618.37	12.478
618.70	12.632
619.03	13.750
619.36	13.170
619.69	13.028
620.03	13.187
620.36	13.503
620.69	13.973
621.02	14.012
621.35	13.469
621.68	13.941
622.01	13.932
622.34	14.070
622.67	13.992
623.00	13.206
623.33	13.367
623.66	12.866
623.99	13.108
624.32	13.980
624.65	12.500
624.99	12.819
625.32	13.758
625.65	13.524
625.98	13.374
626.31	13.997
626.64	14.449
626.97	14.131
627.30	14.048
627.63	14.930
627.96	14.802
628.29	14.698
628.62	14.913
628.95	16.415
629.28	14.142
629.61	15.490
629.94	13.905
630.26	14.013
630.59	13.918
630.92	14.272
