SpectraSuite Data File
++++++++++++++++++++++++++++++++++++
Date: Wed May 13 19:27:48 PDT 2015
User: schluterlab
Dark Spectrum Present: Yes
Reference Spectrum Present: Yes
Number of Sampled Component Spectra: 1
Spectrometers: USB2E3373
Integration Time (usec): 3000 (USB2E3373)
Spectra Averaged: 3 (USB2E3373)
Boxcar Smoothing: 0 (USB2E3373)
Correct for Electrical Dark: No (USB2E3373)
Strobe/Lamp Enabled: No (USB2E3373)
Correct for Detector Non-linearity: No (USB2E3373)
Correct for Stray Light: No (USB2E3373)
Number of Pixels in Processed Spectrum: 2048
>>>>>Begin Processed Spectral Data<<<<<
178.53	0.000
178.91	-1350.000
179.29	-1400.000
179.67	-283.333
180.04	-1125.000
180.42	3200.000
180.80	1100.000
181.18	-1225.000
181.56	557.143
181.94	0.000
182.31	-771.429
182.69	1566.667
183.07	-525.000
183.45	-500.000
183.83	563.636
184.20	-420.000
184.58	2350.000
184.96	5700.000
185.34	-800.000
185.72	-675.000
186.09	-2150.000
186.47	2900.000
186.85	2300.000
187.23	5300.000
187.61	-1600.000
187.98	1525.000
188.36	600.000
188.74	590.909
189.12	-1000.000
189.49	670.000
189.87	-4200.000
190.25	-1450.000
190.63	421.429
191.00	438.462
191.38	1000.000
191.76	-1225.000
192.14	1500.000
192.51	650.000
192.89	1083.333
193.27	587.500
193.65	-1500.000
194.02	550.000
194.40	1040.000
194.78	550.000
195.15	458.333
195.53	680.000
195.91	-2550.000
196.29	362.500
196.66	226.316
197.04	-350.000
197.42	0.000
197.79	730.000
198.17	-5100.000
198.55	642.857
198.92	737.500
199.30	1060.000
199.68	0.000
200.05	333.333
200.43	757.143
200.81	4800.000
201.18	1766.667
201.56	-1933.333
201.94	688.889
202.31	655.556
202.69	450.000
203.07	520.000
203.44	0.000
203.82	1275.000
204.19	757.143
204.57	471.429
204.95	775.000
205.32	1933.333
205.70	527.273
206.08	392.857
206.45	2600.000
206.83	337.500
207.20	1016.667
207.58	800.000
207.96	327.778
208.33	687.500
208.71	-800.000
209.08	800.000
209.46	566.667
209.84	472.727
210.21	-1733.333
210.59	1425.000
210.96	-487.500
211.34	2450.000
211.71	660.000
212.09	816.667
212.46	0.000
212.84	1966.667
213.22	1500.000
213.59	-4200.000
213.97	866.667
214.34	800.000
214.72	572.727
215.09	1000.000
215.47	-2700.000
215.84	-2550.000
216.22	2000.000
216.59	428.571
216.97	1275.000
217.34	545.455
217.72	-800.000
218.09	0.000
218.47	-4800.000
218.84	622.222
219.22	885.714
219.59	1666.667
219.97	-742.857
220.34	980.000
220.72	-2066.667
221.09	485.714
221.47	1475.000
221.84	-933.333
222.22	0.000
222.59	1575.000
222.97	-2500.000
223.34	1180.000
223.72	369.231
224.09	1100.000
224.46	2500.000
224.84	-5600.000
225.21	-1100.000
225.59	-4700.000
225.96	660.000
226.34	310.000
226.71	3200.000
227.08	612.500
227.46	530.000
227.83	-1125.000
228.21	-2550.000
228.58	744.444
228.95	-2900.000
229.33	-2250.000
229.70	2000.000
230.08	742.857
230.45	-1020.000
230.82	433.333
231.20	983.333
231.57	657.143
231.95	433.333
232.32	263.636
232.69	327.273
233.07	771.429
233.44	407.692
233.81	-1833.333
234.19	294.737
234.56	500.000
234.93	416.667
235.31	554.545
235.68	376.923
236.05	335.714
236.43	184.848
236.80	289.474
237.17	5100.000
237.55	285.714
237.92	214.286
238.29	257.143
238.67	174.194
239.04	244.828
239.41	161.111
239.79	117.391
240.16	133.333
240.53	140.909
240.91	123.529
241.28	122.000
241.65	126.000
242.02	101.449
242.40	106.452
242.77	108.333
243.14	80.645
243.51	83.146
243.89	84.706
244.26	85.556
244.63	79.570
245.00	72.340
245.38	75.248
245.75	74.766
246.12	60.550
246.49	72.993
246.87	70.400
247.24	60.769
247.61	62.857
247.98	59.477
248.36	58.108
248.73	49.682
249.10	63.057
249.47	54.802
249.84	56.150
250.22	51.872
250.59	55.030
250.96	52.525
251.33	54.502
251.70	55.941
252.08	44.762
252.45	48.430
252.82	40.870
253.19	48.511
253.56	47.451
253.94	46.058
254.31	51.172
254.68	45.769
255.05	40.221
255.42	46.748
255.79	44.853
256.16	46.209
256.54	39.576
256.91	44.484
257.28	35.252
257.65	41.914
258.02	40.683
258.39	39.117
258.76	41.137
259.14	38.393
259.51	40.122
259.88	36.025
260.25	42.900
260.62	38.439
260.99	39.441
261.36	39.940
261.73	39.255
262.10	38.953
262.47	38.028
262.85	39.554
263.22	35.897
263.59	38.746
263.96	39.011
264.33	35.770
264.70	35.526
265.07	36.573
265.44	37.879
265.81	34.063
266.18	36.935
266.55	37.561
266.92	35.381
267.29	33.565
267.66	36.009
268.03	38.409
268.40	36.449
268.77	28.878
269.14	35.360
269.51	33.860
269.88	37.063
270.25	31.151
270.62	31.011
270.99	37.634
271.36	34.335
271.73	33.645
272.10	33.696
272.47	34.839
272.84	33.550
273.21	34.801
273.58	33.406
273.95	32.075
274.32	34.917
274.69	34.047
275.06	30.906
275.43	34.043
275.80	31.663
276.17	33.401
276.54	34.719
276.91	31.225
277.28	32.227
277.65	31.335
278.02	33.747
278.39	31.836
278.76	32.545
279.13	30.755
279.50	32.030
279.87	31.873
280.23	30.140
280.60	30.368
280.97	27.357
281.34	32.389
281.71	29.636
282.08	32.054
282.45	29.091
282.82	30.906
283.19	30.660
283.56	30.175
283.92	29.949
284.29	29.453
284.66	30.490
285.03	29.837
285.40	29.577
285.77	31.650
286.14	30.052
286.51	30.333
286.87	29.915
287.24	30.456
287.61	28.892
287.98	30.844
288.35	29.952
288.72	28.037
289.08	28.638
289.45	28.501
289.82	28.618
290.19	26.374
290.56	25.574
290.93	25.227
291.29	27.761
291.66	27.286
292.03	28.198
292.40	29.662
292.77	24.112
293.13	25.821
293.50	26.968
293.87	25.481
294.24	24.148
294.60	23.435
294.97	25.872
295.34	26.234
295.71	25.284
296.08	23.932
296.44	22.696
296.81	24.306
297.18	23.984
297.55	22.559
297.91	23.615
298.28	24.498
298.65	24.804
299.02	24.111
299.38	23.639
299.75	22.507
300.12	21.839
300.48	22.125
300.85	23.058
301.22	23.312
301.59	21.338
301.95	23.174
302.32	22.850
302.69	21.147
303.05	21.939
303.42	21.481
303.79	20.951
304.15	20.746
304.52	20.278
304.89	21.951
305.25	20.534
305.62	22.990
305.99	21.370
306.35	21.924
306.72	20.852
307.09	20.089
307.45	22.072
307.82	20.759
308.19	20.419
308.55	22.006
308.92	21.482
309.29	19.852
309.65	19.300
310.02	19.873
310.38	20.860
310.75	20.063
311.12	21.801
311.48	21.317
311.85	20.440
312.22	21.124
312.58	19.127
312.95	20.591
313.31	19.515
313.68	20.686
314.05	22.682
314.41	22.211
314.78	20.141
315.14	20.457
315.51	20.700
315.87	21.287
316.24	20.258
316.61	19.591
316.97	20.352
317.34	20.646
317.70	21.989
318.07	21.367
318.43	22.016
318.80	22.680
319.16	22.599
319.53	21.857
319.89	21.810
320.26	24.000
320.62	23.016
320.99	22.929
321.35	23.737
321.72	24.333
322.08	24.482
322.45	26.269
322.81	24.806
323.18	25.434
323.54	25.881
323.91	26.509
324.27	26.960
324.64	25.815
325.00	25.158
325.37	27.116
325.73	30.072
326.10	28.420
326.46	29.301
326.83	30.544
327.19	29.718
327.56	30.226
327.92	31.234
328.29	31.322
328.65	31.400
329.01	31.498
329.38	31.175
329.74	31.948
330.11	32.799
330.47	33.425
330.84	34.191
331.20	32.787
331.56	35.505
331.93	33.519
332.29	34.250
332.66	34.513
333.02	34.095
333.38	35.501
333.75	34.314
334.11	34.875
334.48	34.605
334.84	35.202
335.20	35.818
335.57	36.083
335.93	34.196
336.29	35.440
336.66	35.888
337.02	35.113
337.38	36.204
337.75	34.670
338.11	36.526
338.47	36.188
338.84	36.297
339.20	35.321
339.56	37.956
339.93	35.273
340.29	35.870
340.65	35.561
341.02	35.515
341.38	37.189
341.74	35.789
342.11	37.904
342.47	38.414
342.83	36.301
343.20	37.403
343.56	35.468
343.92	36.228
344.28	36.395
344.65	36.629
345.01	35.522
345.37	36.106
345.73	36.717
346.10	36.829
346.46	35.508
346.82	36.079
347.19	36.257
347.55	36.700
347.91	36.327
348.27	37.387
348.63	35.452
349.00	37.783
349.36	37.274
349.72	35.124
350.08	35.494
350.45	37.347
350.81	36.474
351.17	36.953
351.53	36.527
351.89	36.056
352.26	36.148
352.62	35.686
352.98	36.224
353.34	36.565
353.70	35.597
354.07	35.806
354.43	36.270
354.79	35.720
355.15	36.792
355.51	37.170
355.87	37.959
356.24	36.971
356.60	36.407
356.96	37.249
357.32	37.204
357.68	36.929
358.04	38.401
358.40	36.184
358.77	37.089
359.13	35.991
359.49	35.922
359.85	35.317
360.21	37.161
360.57	37.432
360.93	38.231
361.29	36.357
361.66	36.455
362.02	36.343
362.38	36.578
362.74	37.872
363.10	35.973
363.46	36.977
363.82	37.264
364.18	37.004
364.54	38.039
364.90	38.173
365.26	38.088
365.62	38.057
365.98	36.888
366.35	36.748
366.71	37.744
367.07	36.271
367.43	39.332
367.79	38.044
368.15	38.218
368.51	37.791
368.87	37.330
369.23	38.771
369.59	38.885
369.95	37.941
370.31	38.889
370.67	38.551
371.03	39.775
371.39	39.796
371.75	38.015
372.11	37.980
372.47	38.636
372.83	39.553
373.19	38.873
373.55	38.803
373.91	41.090
374.27	39.313
374.63	39.782
374.99	40.466
375.35	38.800
375.71	39.479
376.07	40.398
376.42	40.646
376.78	39.563
377.14	40.163
377.50	40.530
377.86	40.160
378.22	40.518
378.58	40.038
378.94	40.603
379.30	40.776
379.66	41.751
380.02	41.400
380.38	41.166
380.74	41.357
381.09	40.587
381.45	42.286
381.81	41.216
382.17	42.484
382.53	41.887
382.89	42.840
383.25	42.151
383.61	43.494
383.97	42.026
384.32	42.046
384.68	41.388
385.04	43.208
385.40	42.105
385.76	41.769
386.12	43.199
386.48	44.368
386.83	44.259
387.19	44.960
387.55	44.465
387.91	44.317
388.27	43.961
388.62	44.868
388.98	43.243
389.34	45.244
389.70	43.654
390.06	45.817
390.42	45.006
390.77	43.957
391.13	46.203
391.49	45.305
391.85	44.558
392.20	45.615
392.56	47.033
392.92	46.557
393.28	44.970
393.64	45.624
393.99	46.121
394.35	45.285
394.71	46.738
395.07	45.358
395.42	47.590
395.78	47.328
396.14	47.796
396.50	48.559
396.85	48.442
397.21	47.287
397.57	48.357
397.92	48.798
398.28	47.982
398.64	48.029
399.00	48.013
399.35	47.265
399.71	49.653
400.07	49.970
400.42	49.571
400.78	49.940
401.14	50.427
401.49	50.269
401.85	50.635
402.21	48.802
402.57	50.093
402.92	51.198
403.28	52.217
403.63	51.671
403.99	52.611
404.35	50.909
404.70	52.338
405.06	51.019
405.42	54.148
405.77	51.200
406.13	51.806
406.49	52.336
406.84	51.920
407.20	52.482
407.55	54.371
407.91	54.800
408.27	55.010
408.62	53.402
408.98	54.596
409.34	54.244
409.69	55.548
410.05	54.647
410.40	55.963
410.76	55.317
411.11	54.584
411.47	55.272
411.83	56.628
412.18	56.895
412.54	56.725
412.89	55.964
413.25	55.903
413.60	57.134
413.96	54.948
414.31	56.804
414.67	57.731
415.03	58.013
415.38	57.152
415.74	56.977
416.09	58.981
416.45	59.170
416.80	59.551
417.16	60.188
417.51	60.319
417.87	59.473
418.22	60.442
418.58	60.426
418.93	60.319
419.29	60.471
419.64	61.146
420.00	60.671
420.35	59.478
420.71	60.012
421.06	59.964
421.42	62.339
421.77	60.818
422.12	61.707
422.48	60.550
422.83	62.551
423.19	60.331
423.54	63.378
423.90	62.319
424.25	61.865
424.61	60.774
424.96	61.924
425.31	62.237
425.67	61.517
426.02	62.800
426.38	64.652
426.73	62.493
427.09	64.498
427.44	63.427
427.79	64.175
428.15	63.750
428.50	64.131
428.85	64.243
429.21	63.390
429.56	63.453
429.92	63.161
430.27	62.761
430.62	63.902
430.98	63.570
431.33	64.072
431.68	64.136
432.04	61.981
432.39	65.848
432.74	65.649
433.10	64.573
433.45	66.064
433.80	66.020
434.16	65.919
434.51	63.632
434.86	66.762
435.22	66.426
435.57	67.112
435.92	66.121
436.28	66.845
436.63	67.219
436.98	66.743
437.34	66.488
437.69	67.678
438.04	67.622
438.39	66.687
438.75	68.274
439.10	67.542
439.45	66.647
439.81	68.338
440.16	67.702
440.51	67.955
440.86	68.500
441.22	67.853
441.57	67.834
441.92	68.270
442.27	69.268
442.63	69.510
442.98	69.352
443.33	68.696
443.68	69.695
444.03	68.521
444.39	69.036
444.74	68.994
445.09	68.518
445.44	68.015
445.79	70.064
446.15	68.449
446.50	68.713
446.85	69.527
447.20	69.046
447.55	69.905
447.91	69.553
448.26	70.785
448.61	70.492
448.96	70.432
449.31	71.429
449.66	69.612
450.02	70.752
450.37	70.238
450.72	70.728
451.07	69.775
451.42	68.997
451.77	70.581
452.12	70.785
452.47	70.585
452.83	71.270
453.18	69.804
453.53	71.800
453.88	70.467
454.23	71.369
454.58	72.441
454.93	73.236
455.28	70.574
455.63	72.512
455.98	72.679
456.34	71.231
456.69	72.073
457.04	73.251
457.39	70.953
457.74	71.851
458.09	70.558
458.44	71.608
458.79	70.716
459.14	71.332
459.49	70.753
459.84	71.856
460.19	71.597
460.54	69.387
460.89	71.530
461.24	71.828
461.59	72.225
461.94	70.962
462.29	72.226
462.64	70.964
462.99	71.047
463.34	70.467
463.69	71.169
464.04	71.536
464.39	70.667
464.74	71.420
465.09	70.265
465.44	70.305
465.79	71.309
466.14	69.677
466.49	70.745
466.84	71.512
467.19	70.911
467.54	72.438
467.89	71.669
468.24	70.273
468.59	71.612
468.94	69.884
469.29	72.108
469.64	72.557
469.99	74.019
470.34	73.118
470.68	72.701
471.03	71.769
471.38	73.801
471.73	71.686
472.08	72.039
472.43	72.739
472.78	71.231
473.13	71.887
473.48	72.846
473.83	72.012
474.17	70.940
474.52	73.015
474.87	72.446
475.22	70.865
475.57	70.607
475.92	70.951
476.27	72.041
476.61	72.201
476.96	72.567
477.31	70.801
477.66	71.225
478.01	71.040
478.36	72.184
478.70	71.184
479.05	71.033
479.40	71.392
479.75	72.395
480.10	70.775
480.45	70.347
480.79	69.995
481.14	70.793
481.49	70.859
481.84	70.553
482.19	70.650
482.53	70.734
482.88	70.963
483.23	71.075
483.58	70.382
483.92	70.337
484.27	68.671
484.62	69.784
484.97	68.664
485.31	69.726
485.66	68.265
486.01	66.544
486.36	64.438
486.70	63.854
487.05	64.930
487.40	66.369
487.75	66.210
488.09	67.789
488.44	67.245
488.79	69.114
489.13	69.022
489.48	69.127
489.83	70.695
490.17	70.715
490.52	69.088
490.87	68.521
491.22	69.804
491.56	68.975
491.91	70.312
492.26	69.821
492.60	69.309
492.95	69.878
493.30	69.346
493.64	69.995
493.99	69.406
494.34	70.444
494.68	70.604
495.03	70.442
495.37	69.195
495.72	70.809
496.07	70.534
496.41	68.805
496.76	69.525
497.11	69.158
497.45	69.306
497.80	69.722
498.14	69.614
498.49	70.341
498.84	70.614
499.18	70.667
499.53	70.038
499.87	69.758
500.22	69.477
500.56	71.311
500.91	69.423
501.26	70.128
501.60	69.720
501.95	68.790
502.29	69.916
502.64	70.205
502.98	70.079
503.33	68.464
503.67	70.023
504.02	69.598
504.36	69.209
504.71	69.809
505.06	70.024
505.40	69.081
505.75	68.370
506.09	70.117
506.44	70.202
506.78	69.313
507.13	70.924
507.47	69.949
507.82	70.567
508.16	71.682
508.51	71.385
508.85	70.258
509.19	71.020
509.54	69.898
509.88	69.037
510.23	71.260
510.57	71.620
510.92	70.896
511.26	70.555
511.61	69.761
511.95	69.207
512.30	70.520
512.64	70.070
512.98	69.668
513.33	70.717
513.67	68.570
514.02	69.697
514.36	70.836
514.70	71.998
515.05	71.445
515.39	71.340
515.74	71.622
516.08	71.213
516.42	71.754
516.77	72.520
517.11	72.420
517.46	70.880
517.80	74.274
518.14	71.569
518.49	73.046
518.83	71.080
519.17	71.882
519.52	71.081
519.86	72.847
520.20	71.676
520.55	73.369
520.89	72.871
521.23	72.979
521.58	72.329
521.92	73.117
522.26	70.958
522.61	73.832
522.95	72.437
523.29	71.211
523.64	71.951
523.98	73.752
524.32	72.859
524.66	72.099
525.01	72.181
525.35	71.375
525.69	70.813
526.04	71.402
526.38	71.385
526.72	71.104
527.06	73.258
527.41	71.968
527.75	73.119
528.09	72.447
528.43	71.256
528.78	72.096
529.12	70.667
529.46	73.239
529.80	72.834
530.15	72.399
530.49	70.892
530.83	72.595
531.17	72.846
531.51	73.152
531.86	73.032
532.20	71.969
532.54	72.966
532.88	72.529
533.22	70.706
533.57	71.852
533.91	70.921
534.25	70.049
534.59	72.422
534.93	69.899
535.27	71.515
535.62	71.001
535.96	72.128
536.30	70.502
536.64	71.668
536.98	71.931
537.32	71.099
537.66	73.467
538.01	71.824
538.35	72.204
538.69	72.112
539.03	70.760
539.37	70.351
539.71	69.021
540.05	73.333
540.39	73.023
540.73	69.922
541.07	71.966
541.42	72.081
541.76	71.806
542.10	71.281
542.44	71.722
542.78	71.937
543.12	70.505
543.46	71.738
543.80	70.917
544.14	70.347
544.48	72.762
544.82	69.788
545.16	71.568
545.50	70.116
545.84	70.363
546.18	71.380
546.52	72.471
546.86	73.402
547.20	71.477
547.54	70.942
547.88	70.791
548.22	70.361
548.56	70.629
548.90	71.063
549.24	71.044
549.58	71.555
549.92	71.429
550.26	72.372
550.60	69.986
550.94	71.620
551.28	71.105
551.62	71.603
551.96	70.877
552.30	70.785
552.64	72.279
552.98	71.186
553.32	69.656
553.66	71.370
554.00	70.762
554.34	70.255
554.68	70.887
555.02	71.509
555.36	71.747
555.69	69.621
556.03	69.314
556.37	69.304
556.71	70.055
557.05	70.238
557.39	70.119
557.73	71.207
558.07	72.806
558.41	72.287
558.75	72.006
559.08	71.663
559.42	72.562
559.76	71.618
560.10	69.522
560.44	69.462
560.78	70.526
561.12	69.657
561.45	70.143
561.79	69.479
562.13	68.410
562.47	70.697
562.81	71.967
563.15	68.763
563.48	69.629
563.82	69.080
564.16	68.934
564.50	68.294
564.84	68.837
565.17	68.533
565.51	70.415
565.85	68.211
566.19	67.502
566.52	69.791
566.86	67.752
567.20	68.396
567.54	67.180
567.88	66.540
568.21	67.407
568.55	65.521
568.89	65.710
569.23	64.617
569.56	63.563
569.90	63.698
570.24	62.935
570.57	62.496
570.91	60.827
571.25	60.902
571.59	60.501
571.92	60.282
572.26	61.843
572.60	61.622
572.93	60.660
573.27	61.372
573.61	60.553
573.95	60.775
574.28	60.980
574.62	60.544
574.96	59.283
575.29	59.069
575.63	59.172
575.97	59.750
576.30	60.568
576.64	60.147
576.98	59.577
577.31	59.242
577.65	59.739
577.98	58.786
578.32	58.161
578.66	58.658
578.99	59.210
579.33	59.017
579.67	58.453
580.00	58.547
580.34	59.350
580.67	59.064
581.01	58.939
581.35	58.478
581.68	58.546
582.02	57.758
582.35	57.975
582.69	58.821
583.02	58.485
583.36	58.889
583.70	59.066
584.03	59.222
584.37	59.842
584.70	59.587
585.04	58.611
585.37	58.364
585.71	58.200
586.04	59.241
586.38	59.065
586.72	58.575
587.05	58.082
587.39	58.074
587.72	58.954
588.06	59.392
588.39	58.820
588.73	58.258
589.06	59.925
589.40	60.438
589.73	59.521
590.07	60.285
590.40	59.810
590.73	61.007
591.07	60.602
591.40	60.312
591.74	61.515
592.07	60.777
592.41	59.777
592.74	59.064
593.08	59.694
593.41	59.158
593.75	57.589
594.08	58.364
594.41	58.713
594.75	60.518
595.08	59.270
595.42	59.229
595.75	60.185
596.09	59.369
596.42	60.157
596.75	59.434
597.09	61.082
597.42	59.064
597.75	60.241
598.09	58.565
598.42	60.009
598.76	59.181
599.09	58.153
599.42	57.969
599.76	58.931
600.09	58.434
600.42	57.999
600.76	58.179
601.09	58.652
601.42	58.181
601.76	57.419
602.09	58.656
602.42	58.838
602.76	58.686
603.09	58.812
603.42	59.508
603.76	58.384
604.09	58.278
604.42	58.500
604.76	59.005
605.09	59.371
605.42	58.230
605.75	57.906
606.09	58.682
606.42	58.929
606.75	58.358
607.09	58.351
607.42	58.494
607.75	57.975
608.08	58.228
608.42	58.763
608.75	58.296
609.08	57.493
609.41	58.258
609.75	57.742
610.08	58.907
610.41	58.007
610.74	59.508
611.07	59.980
611.41	59.274
611.74	59.527
612.07	59.679
612.40	59.706
612.73	59.211
613.07	59.968
613.40	59.400
613.73	59.150
614.06	60.323
614.39	58.207
614.72	58.368
615.06	59.139
615.39	58.599
615.72	57.464
616.05	57.682
616.38	59.366
616.71	60.333
617.05	60.306
617.38	58.749
617.71	60.541
618.04	60.757
618.37	58.309
618.70	59.428
619.03	61.118
619.36	61.643
619.69	61.197
620.03	61.676
620.36	61.698
620.69	62.397
621.02	62.979
621.35	61.002
621.68	61.215
622.01	61.687
622.34	60.061
622.67	62.586
623.00	60.748
623.33	60.615
623.66	61.330
623.99	63.402
624.32	60.128
624.65	60.523
624.99	59.490
625.32	61.405
625.65	60.105
625.98	61.184
626.31	59.720
626.64	61.143
626.97	61.014
627.30	62.760
627.63	62.346
627.96	63.583
628.29	62.030
628.62	60.567
628.95	64.340
629.28	62.226
629.61	62.328
629.94	64.476
630.26	62.440
630.59	63.489
