SpectraSuite Data File
++++++++++++++++++++++++++++++++++++
Date: Wed May 13 19:55:28 PDT 2015
User: schluterlab
Dark Spectrum Present: Yes
Reference Spectrum Present: Yes
Number of Sampled Component Spectra: 1
Spectrometers: USB2E3373
Integration Time (usec): 3000 (USB2E3373)
Spectra Averaged: 3 (USB2E3373)
Boxcar Smoothing: 0 (USB2E3373)
Correct for Electrical Dark: No (USB2E3373)
Strobe/Lamp Enabled: No (USB2E3373)
Correct for Detector Non-linearity: No (USB2E3373)
Correct for Stray Light: No (USB2E3373)
Number of Pixels in Processed Spectrum: 2048
>>>>>Begin Processed Spectral Data<<<<<
178.53	0.000
178.91	-1475.000
179.29	-1300.000
179.67	-272.222
180.04	-1400.000
180.42	2650.000
180.80	1280.000
181.18	-1275.000
181.56	671.429
181.94	0.000
182.31	-714.286
182.69	1900.000
183.07	-587.500
183.45	-466.667
183.83	481.818
184.20	-450.000
184.58	2750.000
184.96	5300.000
185.34	-980.000
185.72	-575.000
186.09	-2350.000
186.47	2850.000
186.85	2250.000
187.23	5300.000
187.61	-1800.000
187.98	1400.000
188.36	563.636
188.74	518.182
189.12	-980.000
189.49	520.000
189.87	-4700.000
190.25	-1275.000
190.63	428.571
191.00	461.538
191.38	683.333
191.76	-1250.000
192.14	1475.000
192.51	625.000
192.89	833.333
193.27	562.500
193.65	-1150.000
194.02	510.000
194.40	1020.000
194.78	570.000
195.15	575.000
195.53	690.000
195.91	-2300.000
196.29	343.750
196.66	326.316
197.04	-360.000
197.42	0.000
197.79	710.000
198.17	-4300.000
198.55	528.571
198.92	662.500
199.30	620.000
199.68	0.000
200.05	316.667
200.43	685.714
200.81	5000.000
201.18	1533.333
201.56	-1700.000
201.94	588.889
202.31	688.889
202.69	383.333
203.07	610.000
203.44	0.000
203.82	1125.000
204.19	714.286
204.57	400.000
204.95	587.500
205.32	1866.667
205.70	518.182
206.08	364.286
206.45	2350.000
206.83	312.500
207.20	866.667
207.58	700.000
207.96	411.111
208.33	750.000
208.71	-983.333
209.08	800.000
209.46	633.333
209.84	518.182
210.21	-1666.667
210.59	1200.000
210.96	-337.500
211.34	2700.000
211.71	510.000
212.09	883.333
212.46	0.000
212.84	1933.333
213.22	1300.000
213.59	-4800.000
213.97	733.333
214.34	757.143
214.72	636.364
215.09	980.000
215.47	-2200.000
215.84	-2300.000
216.22	1666.667
216.59	378.571
216.97	1300.000
217.34	500.000
217.72	-683.333
218.09	0.000
218.47	-4800.000
218.84	588.889
219.22	785.714
219.59	1733.333
219.97	-614.286
220.34	920.000
220.72	-1700.000
221.09	428.571
221.47	1475.000
221.84	-916.667
222.22	0.000
222.59	1350.000
222.97	-2700.000
223.34	1220.000
223.72	430.769
224.09	1180.000
224.46	2150.000
224.84	-4500.000
225.21	-1000.000
225.59	-4700.000
225.96	520.000
226.34	300.000
226.71	3400.000
227.08	662.500
227.46	560.000
227.83	-825.000
228.21	-2600.000
228.58	466.667
228.95	-2500.000
229.33	-2200.000
229.70	1966.667
230.08	814.286
230.45	-840.000
230.82	450.000
231.20	883.333
231.57	628.571
231.95	408.333
232.32	259.091
232.69	454.545
233.07	842.857
233.44	307.692
233.81	-1833.333
234.19	294.737
234.56	475.000
234.93	358.333
235.31	463.636
235.68	284.615
236.05	357.143
236.43	169.697
236.80	226.316
237.17	4300.000
237.55	228.571
237.92	189.286
238.29	271.429
238.67	167.742
239.04	168.966
239.41	169.444
239.79	121.739
240.16	128.571
240.53	115.909
240.91	117.647
241.28	114.000
241.65	80.000
242.02	95.652
242.40	95.161
242.77	88.333
243.14	76.344
243.51	80.899
243.89	64.706
244.26	67.778
244.63	68.817
245.00	69.149
245.38	63.366
245.75	59.813
246.12	54.128
246.49	58.394
246.87	64.000
247.24	57.692
247.61	57.143
247.98	50.980
248.36	51.351
248.73	45.223
249.10	49.682
249.47	42.938
249.84	50.802
250.22	49.733
250.59	44.379
250.96	45.455
251.33	44.076
251.70	47.525
252.08	38.095
252.45	34.529
252.82	37.826
253.19	40.000
253.56	38.824
253.94	43.568
254.31	38.281
254.68	38.077
255.05	36.531
255.42	39.024
255.79	35.294
256.16	36.823
256.54	33.569
256.91	35.231
257.28	32.734
257.65	35.974
258.02	35.714
258.39	30.599
258.76	36.789
259.14	34.226
259.51	32.219
259.88	31.988
260.25	32.326
260.62	31.214
260.99	36.335
261.36	33.934
261.73	30.086
262.10	29.651
262.47	29.577
262.85	28.969
263.22	26.496
263.59	31.624
263.96	31.868
264.33	30.287
264.70	31.053
265.07	30.691
265.44	30.556
265.81	28.954
266.18	30.905
266.55	30.976
266.92	31.450
267.29	26.620
267.66	27.982
268.03	27.955
268.40	26.869
268.77	26.969
269.14	28.378
269.51	28.894
269.88	28.205
270.25	28.442
270.62	27.640
270.99	29.677
271.36	26.395
271.73	26.168
272.10	24.348
272.47	26.237
272.84	24.892
273.21	26.834
273.58	25.109
273.95	27.044
274.32	25.413
274.69	25.696
275.06	25.787
275.43	28.511
275.80	26.253
276.17	27.088
276.54	26.195
276.91	23.123
277.28	26.367
277.65	27.079
278.02	25.466
278.39	25.391
278.76	24.545
279.13	24.340
279.50	26.816
279.87	25.896
280.23	27.345
280.60	24.758
280.97	23.475
281.34	25.841
281.71	24.545
282.08	27.831
282.45	25.455
282.82	24.156
283.19	22.460
283.56	25.439
283.92	24.873
284.29	23.280
284.66	23.412
285.03	23.689
285.40	24.648
285.77	23.064
286.14	23.316
286.51	25.667
286.87	22.906
287.24	23.616
287.61	21.669
287.98	24.188
288.35	21.553
288.72	22.274
289.08	22.535
289.45	22.570
289.82	23.252
290.19	22.606
290.56	23.583
290.93	19.184
291.29	19.939
291.66	21.681
292.03	22.965
292.40	22.761
292.77	19.822
293.13	21.045
293.50	21.137
293.87	20.593
294.24	19.556
294.60	20.815
294.97	20.349
295.34	20.592
295.71	20.312
296.08	19.658
296.44	19.395
296.81	19.155
297.18	18.970
297.55	16.887
297.91	18.206
298.28	19.143
298.65	18.799
299.02	20.685
299.38	18.592
299.75	17.520
300.12	18.902
300.48	18.750
300.85	17.386
301.22	18.344
301.59	16.919
301.95	19.144
302.32	17.972
302.69	18.399
303.05	18.424
303.42	18.148
303.79	18.233
304.15	15.851
304.52	17.845
304.89	17.654
305.25	16.937
305.62	18.120
305.99	18.536
306.35	17.338
306.72	17.713
307.09	17.980
307.45	19.369
307.82	17.522
308.19	18.433
308.55	19.417
308.92	18.153
309.29	17.212
309.65	17.285
310.02	18.182
310.38	17.527
310.75	17.740
311.12	17.195
311.48	17.346
311.85	18.344
312.22	19.043
312.58	18.399
312.95	19.430
313.31	16.699
313.68	18.607
314.05	19.527
314.41	20.000
314.78	19.134
315.14	18.371
315.51	20.082
315.87	20.099
316.24	19.067
316.61	19.591
316.97	19.667
317.34	19.569
317.70	19.981
318.07	20.404
318.43	21.624
318.80	21.837
319.16	21.469
319.53	20.356
319.89	21.143
320.26	21.200
320.62	22.123
320.99	21.818
321.35	22.525
321.72	23.203
322.08	23.593
322.45	24.179
322.81	23.643
323.18	24.566
323.54	24.026
323.91	24.434
324.27	23.231
324.64	24.324
325.00	24.256
325.37	25.933
325.73	27.110
326.10	25.419
326.46	25.717
326.83	25.884
327.19	26.644
327.56	27.787
327.92	26.859
328.29	27.862
328.65	26.980
329.01	28.430
329.38	28.677
329.74	27.608
330.11	29.123
330.47	28.650
330.84	28.125
331.20	29.690
331.56	29.725
331.93	28.796
332.29	28.926
332.66	28.850
333.02	28.428
333.38	28.546
333.75	29.144
334.11	29.893
334.48	30.080
334.84	29.504
335.20	29.455
335.57	29.193
335.93	28.750
336.29	28.663
336.66	30.298
337.02	28.145
337.38	29.074
337.75	28.966
338.11	30.081
338.47	30.203
338.84	30.797
339.20	31.101
339.56	30.931
339.93	30.273
340.29	29.257
340.65	30.749
341.02	29.930
341.38	29.893
341.74	29.737
342.11	30.393
342.47	29.780
342.83	29.281
343.20	31.948
343.56	29.655
343.92	30.439
344.28	30.782
344.65	29.923
345.01	31.481
345.37	29.503
345.73	31.726
346.10	30.520
346.46	30.932
346.82	30.231
347.19	29.323
347.55	29.475
347.91	30.502
348.27	30.978
348.63	32.274
349.00	30.744
349.36	29.803
349.72	30.714
350.08	30.308
350.45	31.164
350.81	31.275
351.17	31.199
351.53	30.467
351.89	30.198
352.26	30.939
352.62	31.596
352.98	31.524
353.34	31.060
353.70	31.424
354.07	30.726
354.43	31.032
354.79	31.376
355.15	30.567
355.51	32.374
355.87	31.918
356.24	32.655
356.60	31.034
356.96	32.422
357.32	32.216
357.68	32.205
358.04	31.750
358.40	31.829
358.77	31.455
359.13	31.018
359.49	32.078
359.85	31.587
360.21	32.695
360.57	33.930
360.93	32.615
361.29	32.653
361.66	32.198
362.02	32.537
362.38	33.764
362.74	33.110
363.10	33.087
363.46	33.896
363.82	33.711
364.18	33.040
364.54	34.770
364.90	34.703
365.26	33.382
365.62	34.551
365.98	34.259
366.35	33.524
366.71	34.273
367.07	34.304
367.43	35.196
367.79	35.760
368.15	35.704
368.51	34.375
368.87	35.261
369.23	35.113
369.59	36.930
369.95	34.191
370.31	35.185
370.67	35.145
371.03	36.330
371.39	35.496
371.75	36.103
372.11	35.349
372.47	36.877
372.83	36.888
373.19	37.500
373.55	36.733
373.91	37.408
374.27	36.632
374.63	37.527
374.99	38.136
375.35	37.962
375.71	37.217
376.07	38.340
376.42	38.308
376.78	37.840
377.14	38.195
377.50	38.675
377.86	38.963
378.22	38.180
378.58	37.093
378.94	37.901
379.30	38.359
379.66	38.706
380.02	39.189
380.38	37.583
380.74	39.496
381.09	38.998
381.45	39.459
381.81	39.251
382.17	40.064
382.53	39.308
382.89	40.556
383.25	39.525
383.61	41.016
383.97	39.650
384.32	39.800
384.68	41.140
385.04	40.320
385.40	40.805
385.76	39.128
386.12	40.674
386.48	41.473
386.83	40.988
387.19	42.548
387.55	41.682
387.91	40.387
388.27	40.466
388.62	41.487
388.98	40.786
389.34	41.239
389.70	42.183
390.06	41.952
390.42	41.634
390.77	42.621
391.13	42.757
391.49	42.957
391.85	41.502
392.20	41.703
392.56	43.308
392.92	43.320
393.28	41.893
393.64	42.686
393.99	41.539
394.35	42.370
394.71	43.225
395.07	42.617
395.42	42.892
395.78	42.430
396.14	42.458
396.50	43.672
396.85	43.738
397.21	42.417
397.57	43.645
397.92	43.870
398.28	42.601
398.64	44.026
399.00	43.089
399.35	42.922
399.71	43.229
400.07	43.406
400.42	43.497
400.78	43.486
401.14	44.573
401.49	44.299
401.85	44.646
402.21	43.533
402.57	44.664
402.92	45.082
403.28	43.973
403.63	44.121
403.99	44.777
404.35	43.879
404.70	44.305
405.06	43.797
405.42	44.167
405.77	43.143
406.13	43.228
406.49	44.885
406.84	43.001
407.20	44.681
407.55	45.565
407.91	44.267
408.27	45.118
408.62	44.612
408.98	45.098
409.34	44.465
409.69	45.290
410.05	44.672
410.40	43.486
410.76	43.548
411.11	44.753
411.47	43.706
411.83	45.510
412.18	45.269
412.54	44.894
412.89	45.301
413.25	44.038
413.60	45.460
413.96	43.837
414.31	44.532
414.67	44.550
415.03	45.033
415.38	45.619
415.74	44.887
416.09	44.807
416.45	44.511
416.80	45.737
417.16	45.979
417.51	46.450
417.87	45.472
418.22	46.751
418.58	45.384
418.93	45.332
419.29	45.512
419.64	46.474
420.00	46.829
420.35	45.449
420.71	45.368
421.06	45.107
421.42	45.614
421.77	45.067
422.12	45.480
422.48	45.224
422.83	46.709
423.19	45.359
423.54	45.792
423.90	45.797
424.25	46.175
424.61	46.131
424.96	46.939
425.31	45.903
425.67	45.787
426.02	46.114
426.38	47.619
426.73	45.992
427.09	46.626
427.44	45.888
427.79	47.556
428.15	47.024
428.50	46.167
428.85	48.153
429.21	45.886
429.56	47.278
429.92	47.056
430.27	45.879
430.62	45.315
430.98	46.497
431.33	46.082
431.68	46.335
432.04	46.699
432.39	47.173
432.74	48.235
433.10	47.595
433.45	47.813
433.80	46.674
434.16	46.848
434.51	46.368
434.86	47.434
435.22	48.138
435.57	47.781
435.92	48.040
436.28	49.110
436.63	47.792
436.98	46.651
437.34	48.420
437.69	48.308
438.04	48.173
438.39	48.239
438.75	47.879
439.10	47.263
439.45	48.170
439.81	48.036
440.16	48.278
440.51	47.510
440.86	47.134
441.22	46.719
441.57	47.028
441.92	47.185
442.27	47.847
442.63	46.498
442.98	47.549
443.33	46.793
443.68	47.548
444.03	47.682
444.39	46.397
444.74	46.591
445.09	47.709
445.44	47.731
445.79	47.600
446.15	46.956
446.50	47.711
446.85	47.533
447.20	46.813
447.55	48.688
447.91	47.380
448.26	47.412
448.61	47.993
448.96	47.619
449.31	48.594
449.66	47.552
450.02	46.741
450.37	47.222
450.72	46.193
451.07	47.715
451.42	46.809
451.77	48.092
452.12	47.171
452.47	47.761
452.83	47.727
453.18	46.149
453.53	47.372
453.88	46.899
454.23	47.400
454.58	47.668
454.93	47.807
455.28	46.758
455.63	47.269
455.98	47.321
456.34	46.859
456.69	46.650
457.04	47.616
457.39	46.523
457.74	46.605
458.09	46.694
458.44	45.895
458.79	44.035
459.14	46.840
459.49	45.651
459.84	45.152
460.19	46.081
460.54	44.734
460.89	46.626
461.24	46.448
461.59	46.833
461.94	46.363
462.29	47.596
462.64	45.565
462.99	44.763
463.34	46.133
463.69	46.216
464.04	45.623
464.39	45.507
464.74	45.752
465.09	44.994
465.44	44.598
465.79	45.022
466.14	44.882
466.49	44.716
466.84	44.717
467.19	44.840
467.54	45.938
467.89	45.318
468.24	44.735
468.59	45.421
468.94	44.411
469.29	45.244
469.64	46.118
469.99	45.805
470.34	45.575
470.68	46.983
471.03	44.490
471.38	46.143
471.73	45.103
472.08	45.921
472.43	45.038
472.78	45.688
473.13	45.635
473.48	44.320
473.83	45.549
474.17	44.306
474.52	45.347
474.87	45.067
475.22	44.806
475.57	43.256
475.92	44.025
476.27	43.067
476.61	44.677
476.96	43.705
477.31	43.380
477.66	44.748
478.01	42.969
478.36	43.099
478.70	43.198
479.05	43.450
479.40	43.705
479.75	43.874
480.10	43.738
480.45	42.551
480.79	41.328
481.14	42.955
481.49	42.667
481.84	42.661
482.19	43.162
482.53	42.110
482.88	42.764
483.23	41.355
483.58	42.766
483.92	42.455
484.27	41.351
484.62	42.888
484.97	41.585
485.31	41.404
485.66	39.405
486.01	38.062
486.36	37.174
486.70	37.079
487.05	38.227
487.40	38.866
487.75	39.567
488.09	40.218
488.44	40.460
488.79	41.483
489.13	41.215
489.48	40.946
489.83	40.699
490.17	41.692
490.52	40.744
490.87	41.294
491.22	41.473
491.56	41.185
491.91	40.996
492.26	41.341
492.60	40.599
492.95	40.178
493.30	40.093
493.64	40.644
493.99	40.483
494.34	40.426
494.68	40.751
495.03	40.320
495.37	40.484
495.72	42.300
496.07	41.067
496.41	38.982
496.76	40.545
497.11	39.847
497.45	39.963
497.80	40.163
498.14	40.145
498.49	41.171
498.84	40.460
499.18	39.429
499.53	39.696
499.87	40.121
500.22	39.190
500.56	40.874
500.91	39.375
501.26	39.877
501.60	40.532
501.95	38.634
502.29	39.738
502.64	39.153
502.98	39.832
503.33	38.117
503.67	38.979
504.02	39.102
504.36	37.997
504.71	39.130
505.06	39.181
505.40	38.503
505.75	38.766
506.09	38.581
506.44	39.319
506.78	39.162
507.13	39.071
507.47	40.152
507.82	39.868
508.16	39.615
508.51	39.422
508.85	38.530
509.19	39.082
509.54	39.388
509.88	39.876
510.23	38.817
510.57	39.267
510.92	38.736
511.26	38.695
511.61	39.523
511.95	38.205
512.30	39.183
512.64	37.722
512.98	39.175
513.33	39.240
513.67	37.567
514.02	38.149
514.36	38.230
514.70	38.683
515.05	38.595
515.39	38.755
515.74	39.302
516.08	38.513
516.42	38.346
516.77	38.740
517.11	38.624
517.46	38.770
517.80	38.850
518.14	38.274
518.49	39.382
518.83	38.466
519.17	38.799
519.52	39.162
519.86	39.418
520.20	39.075
520.55	39.437
520.89	39.659
521.23	38.601
521.58	39.376
521.92	38.089
522.26	37.279
522.61	38.131
522.95	38.428
523.29	37.858
523.64	39.024
523.98	37.585
524.32	38.058
524.66	37.763
525.01	38.051
525.35	37.918
525.69	38.054
526.04	38.567
526.38	37.645
526.72	37.607
527.06	38.732
527.41	36.634
527.75	38.585
528.09	38.857
528.43	37.922
528.78	37.062
529.12	37.697
529.46	38.273
529.80	37.748
530.15	37.695
530.49	36.431
530.83	38.165
531.17	38.642
531.51	39.105
531.86	37.290
532.20	37.549
532.54	37.412
532.88	36.970
533.22	35.415
533.57	36.728
533.91	36.063
534.25	36.634
534.59	36.425
534.93	35.396
535.27	35.969
535.62	36.081
535.96	37.728
536.30	36.999
536.64	36.961
536.98	36.297
537.32	36.340
537.66	37.000
538.01	36.603
538.35	36.070
538.69	36.184
539.03	37.232
539.37	34.888
539.71	34.673
540.05	36.601
540.39	35.615
540.73	35.382
541.07	36.729
541.42	36.856
541.76	35.226
542.10	36.999
542.44	35.960
542.78	36.891
543.12	35.189
543.46	35.738
543.80	35.459
544.14	34.403
544.48	35.492
544.82	35.471
545.16	34.808
545.50	35.090
545.84	35.349
546.18	35.960
546.52	37.027
546.86	35.258
547.20	35.604
547.54	35.671
547.88	35.714
548.22	34.309
548.56	35.283
548.90	34.123
549.24	34.680
549.58	35.744
549.92	35.714
550.26	35.369
550.60	34.647
550.94	35.352
551.28	34.382
551.62	35.658
551.96	35.018
552.30	34.471
552.64	35.227
552.98	36.203
553.32	34.929
553.66	34.833
554.00	35.484
554.34	34.507
554.68	36.552
555.02	34.908
555.36	33.542
555.69	34.032
556.03	33.647
556.37	34.447
556.71	33.561
557.05	35.014
557.39	34.850
557.73	34.651
558.07	34.735
558.41	32.851
558.75	35.415
559.08	34.526
559.42	34.165
559.76	35.294
560.10	34.190
560.44	33.054
560.78	32.668
561.12	32.718
561.45	34.224
561.79	34.146
562.13	33.803
562.47	34.016
562.81	33.891
563.15	33.110
563.48	33.090
563.82	32.811
564.16	33.159
564.50	32.292
564.84	32.238
565.17	32.947
565.51	31.693
565.85	32.995
566.19	31.121
566.52	32.362
566.86	31.103
567.20	32.724
567.54	31.678
567.88	31.396
568.21	31.693
568.55	30.637
568.89	30.253
569.23	29.590
569.56	29.474
569.90	29.434
570.24	28.597
570.57	28.188
570.91	27.602
571.25	27.671
571.59	27.982
571.92	27.391
572.26	28.105
572.60	27.748
572.93	27.886
573.27	27.448
573.61	27.778
573.95	27.649
574.28	26.508
574.62	26.919
574.96	26.547
575.29	26.625
575.63	26.575
575.97	26.295
576.30	27.244
576.64	26.712
576.98	26.568
577.31	26.617
577.65	26.298
577.98	26.076
578.32	25.278
578.66	26.247
578.99	25.999
579.33	26.265
579.67	26.003
580.00	26.229
580.34	26.815
580.67	26.448
581.01	26.467
581.35	25.956
581.68	25.497
582.02	25.275
582.35	25.570
582.69	25.412
583.02	25.863
583.36	26.816
583.70	26.798
584.03	26.594
584.37	27.457
584.70	26.698
585.04	25.930
585.37	25.815
585.71	25.869
586.04	25.997
586.38	26.672
586.72	26.181
587.05	26.216
587.39	25.910
587.72	25.921
588.06	26.307
588.39	26.310
588.73	26.371
589.06	26.831
589.40	27.138
589.73	27.209
590.07	27.117
590.40	26.708
590.73	27.713
591.07	28.287
591.40	27.668
591.74	28.095
592.07	27.749
592.41	27.077
592.74	26.854
593.08	26.516
593.41	26.226
593.75	25.359
594.08	26.014
594.41	26.653
594.75	26.654
595.08	26.557
595.42	26.655
595.75	26.852
596.09	27.375
596.42	27.151
596.75	27.227
597.09	27.749
597.42	26.728
597.75	26.822
598.09	26.783
598.42	26.589
598.76	26.186
599.09	25.694
599.42	26.201
599.76	25.842
600.09	25.173
600.42	25.530
600.76	25.821
601.09	26.047
601.42	25.457
601.76	26.110
602.09	26.126
602.42	26.990
602.76	26.763
603.09	26.633
603.42	26.513
603.76	25.991
604.09	25.785
604.42	26.172
604.76	27.288
605.09	27.304
605.42	25.994
605.75	26.118
606.09	26.068
606.42	25.868
606.75	25.591
607.09	26.455
607.42	25.845
607.75	25.190
608.08	25.445
608.42	26.849
608.75	25.383
609.08	25.486
609.41	26.321
609.75	26.060
610.08	26.484
610.41	25.698
610.74	26.632
611.07	26.334
611.41	26.889
611.74	26.496
612.07	27.226
612.40	26.967
612.73	26.789
613.07	27.371
613.40	26.330
613.73	26.481
614.06	26.882
614.39	25.275
614.72	26.895
615.06	26.943
615.39	25.212
615.72	26.176
616.05	26.156
616.38	26.459
616.71	27.138
617.05	26.914
617.38	26.398
617.71	26.246
618.04	26.623
618.37	26.257
618.70	27.567
619.03	27.895
619.36	27.427
619.69	28.099
620.03	27.060
620.36	27.674
620.69	27.671
621.02	29.130
621.35	28.504
621.68	28.037
622.01	28.560
622.34	28.517
622.67	27.529
623.00	27.293
623.33	27.448
623.66	27.806
623.99	27.467
624.32	27.318
624.65	26.695
624.99	26.062
625.32	26.213
625.65	27.122
625.98	29.208
626.31	27.216
626.64	28.082
626.97	27.847
627.30	27.099
627.63	27.646
627.96	28.091
628.29	29.396
628.62	29.369
628.95	30.849
629.28	29.380
629.61	29.698
629.94	29.810
630.26	28.885
630.59	29.075
630.92	28.831
