SpectraSuite Data File
++++++++++++++++++++++++++++++++++++
Date: Wed May 13 19:30:13 PDT 2015
User: schluterlab
Dark Spectrum Present: Yes
Reference Spectrum Present: Yes
Number of Sampled Component Spectra: 1
Spectrometers: USB2E3373
Integration Time (usec): 3000 (USB2E3373)
Spectra Averaged: 3 (USB2E3373)
Boxcar Smoothing: 0 (USB2E3373)
Correct for Electrical Dark: No (USB2E3373)
Strobe/Lamp Enabled: No (USB2E3373)
Correct for Detector Non-linearity: No (USB2E3373)
Correct for Stray Light: No (USB2E3373)
Number of Pixels in Processed Spectrum: 2048
>>>>>Begin Processed Spectral Data<<<<<
178.53	0.000
178.91	-1350.000
179.29	-1500.000
179.67	-277.778
180.04	-1275.000
180.42	2900.000
180.80	1180.000
181.18	-1150.000
181.56	700.000
181.94	0.000
182.31	-685.714
182.69	1733.333
183.07	-612.500
183.45	-444.444
183.83	554.545
184.20	-510.000
184.58	2300.000
184.96	5200.000
185.34	-860.000
185.72	-637.500
186.09	-2600.000
186.47	2600.000
186.85	2750.000
187.23	4800.000
187.61	-1833.333
187.98	1525.000
188.36	572.727
188.74	490.909
189.12	-900.000
189.49	530.000
189.87	-5900.000
190.25	-1400.000
190.63	428.571
191.00	507.692
191.38	750.000
191.76	-1075.000
192.14	1525.000
192.51	612.500
192.89	966.667
193.27	612.500
193.65	-1225.000
194.02	490.000
194.40	980.000
194.78	670.000
195.15	558.333
195.53	640.000
195.91	-2000.000
196.29	362.500
196.66	368.421
197.04	-430.000
197.42	0.000
197.79	590.000
198.17	-5300.000
198.55	814.286
198.92	787.500
199.30	1020.000
199.68	0.000
200.05	322.222
200.43	842.857
200.81	4400.000
201.18	1733.333
201.56	-1666.667
201.94	511.111
202.31	688.889
202.69	416.667
203.07	610.000
203.44	0.000
203.82	1250.000
204.19	871.429
204.57	364.286
204.95	637.500
205.32	1433.333
205.70	554.545
206.08	414.286
206.45	2350.000
206.83	362.500
207.20	950.000
207.58	900.000
207.96	316.667
208.33	737.500
208.71	-933.333
209.08	957.143
209.46	544.444
209.84	563.636
210.21	-1466.667
210.59	1225.000
210.96	-575.000
211.34	2700.000
211.71	640.000
212.09	833.333
212.46	0.000
212.84	1966.667
213.22	1225.000
213.59	-5300.000
213.97	1016.667
214.34	657.143
214.72	609.091
215.09	1060.000
215.47	-2150.000
215.84	-2650.000
216.22	1866.667
216.59	357.143
216.97	1450.000
217.34	536.364
217.72	-616.667
218.09	0.000
218.47	-4800.000
218.84	688.889
219.22	714.286
219.59	1700.000
219.97	-685.714
220.34	1060.000
220.72	-2166.667
221.09	378.571
221.47	1600.000
221.84	-900.000
222.22	0.000
222.59	1275.000
222.97	-2900.000
223.34	1220.000
223.72	453.846
224.09	860.000
224.46	2100.000
224.84	-5000.000
225.21	-1060.000
225.59	-4700.000
225.96	620.000
226.34	275.000
226.71	2500.000
227.08	675.000
227.46	620.000
227.83	-1125.000
228.21	-2500.000
228.58	688.889
228.95	-1950.000
229.33	-2500.000
229.70	1733.333
230.08	757.143
230.45	-1000.000
230.82	450.000
231.20	683.333
231.57	642.857
231.95	491.667
232.32	281.818
232.69	436.364
233.07	814.286
233.44	369.231
233.81	-1933.333
234.19	284.211
234.56	425.000
234.93	391.667
235.31	463.636
235.68	369.231
236.05	364.286
236.43	193.939
236.80	294.737
237.17	4900.000
237.55	247.619
237.92	217.857
238.29	285.714
238.67	151.613
239.04	200.000
239.41	177.778
239.79	132.609
240.16	133.333
240.53	140.909
240.91	115.686
241.28	118.000
241.65	130.000
242.02	104.348
242.40	96.774
242.77	113.333
243.14	73.118
243.51	86.517
243.89	91.765
244.26	71.111
244.63	84.946
245.00	64.894
245.38	76.238
245.75	64.486
246.12	66.972
246.49	73.723
246.87	69.600
247.24	62.308
247.61	60.000
247.98	54.902
248.36	53.378
248.73	57.962
249.10	59.236
249.47	56.497
249.84	58.289
250.22	49.733
250.59	56.213
250.96	53.030
251.33	48.815
251.70	56.931
252.08	50.000
252.45	46.637
252.82	47.826
253.19	45.957
253.56	47.843
253.94	49.793
254.31	48.828
254.68	45.385
255.05	44.280
255.42	45.935
255.79	40.441
256.16	42.960
256.54	43.463
256.91	45.196
257.28	41.007
257.65	40.924
258.02	45.342
258.39	40.379
258.76	41.806
259.14	41.071
259.51	37.690
259.88	40.062
260.25	41.088
260.62	36.705
260.99	38.509
261.36	44.444
261.73	36.676
262.10	40.407
262.47	41.408
262.85	39.276
263.22	33.903
263.59	39.031
263.96	39.011
264.33	36.815
264.70	37.632
265.07	35.550
265.44	38.131
265.81	36.983
266.18	36.683
266.55	35.610
266.92	38.575
267.29	36.574
267.66	35.550
268.03	34.091
268.40	37.850
268.77	35.561
269.14	34.234
269.51	37.246
269.88	36.830
270.25	35.892
270.62	33.483
270.99	36.774
271.36	36.695
271.73	34.112
272.10	35.000
272.47	38.065
272.84	36.147
273.21	33.962
273.58	32.969
273.95	33.124
274.32	32.231
274.69	33.191
275.06	32.283
275.43	34.894
275.80	33.267
276.17	32.383
276.54	35.343
276.91	35.375
277.28	34.375
277.65	33.075
278.02	32.505
278.39	33.984
278.76	33.818
279.13	33.774
279.50	32.775
279.87	31.873
280.23	31.936
280.60	31.915
280.97	30.684
281.34	34.159
281.71	35.455
282.08	35.893
282.45	30.909
282.82	31.972
283.19	30.660
283.56	31.754
283.92	31.641
284.29	31.746
284.66	31.397
285.03	30.741
285.40	30.634
285.77	29.966
286.14	30.743
286.51	32.167
286.87	28.889
287.24	30.782
287.61	30.658
287.98	31.006
288.35	30.586
288.72	28.972
289.08	29.577
289.45	28.501
289.82	29.268
290.19	28.257
290.56	27.106
290.93	27.039
291.29	26.380
291.66	26.991
292.03	28.343
292.40	30.103
292.77	25.296
293.13	26.567
293.50	27.114
293.87	26.667
294.24	25.630
294.60	26.055
294.97	25.291
295.34	25.811
295.71	27.131
296.08	25.641
296.44	25.309
296.81	24.703
297.18	25.203
297.55	22.559
297.91	24.406
298.28	24.766
298.65	25.849
299.02	23.715
299.38	23.240
299.75	21.159
300.12	22.350
300.48	24.625
300.85	22.441
301.22	23.185
301.59	22.348
301.95	23.804
302.32	22.080
302.69	23.417
303.05	22.303
303.42	21.975
303.79	21.744
304.15	22.145
304.52	21.784
304.89	19.744
305.25	21.578
305.62	23.103
305.99	22.314
306.35	22.036
306.72	19.955
307.09	22.531
307.45	22.860
307.82	21.317
308.19	20.971
308.55	21.251
308.92	21.805
309.29	19.852
309.65	19.724
310.02	21.142
310.38	21.935
310.75	20.803
311.12	20.573
311.48	21.212
311.85	20.545
312.22	20.812
312.58	20.062
312.95	20.697
313.31	20.097
313.68	20.166
314.05	21.598
314.41	20.201
314.78	19.940
315.14	20.755
315.51	20.288
315.87	21.386
316.24	19.861
316.61	18.908
316.97	19.961
317.34	20.352
317.70	21.797
318.07	19.538
318.43	18.787
318.80	19.400
319.16	20.716
319.53	19.606
319.89	20.286
320.26	20.900
320.62	21.230
320.99	19.798
321.35	20.909
321.72	18.891
322.08	20.928
322.45	20.597
322.81	19.864
323.18	20.039
323.54	20.501
323.91	19.906
324.27	19.407
324.64	20.876
325.00	18.756
325.37	18.926
325.73	20.646
326.10	19.771
326.46	19.713
326.83	20.794
327.19	19.812
327.56	19.251
327.92	19.685
328.29	20.142
328.65	19.705
329.01	20.217
329.38	18.686
329.74	19.021
330.11	19.510
330.47	20.018
330.84	21.875
331.20	19.035
331.56	19.266
331.93	19.907
332.29	19.077
332.66	20.000
333.02	19.013
333.38	19.151
333.75	20.143
334.11	20.285
334.48	20.408
334.84	18.382
335.20	18.636
335.57	18.404
335.93	18.214
336.29	17.857
336.66	20.108
337.02	18.462
337.38	20.741
337.75	18.806
338.11	19.338
338.47	19.982
338.84	19.890
339.20	18.624
339.56	18.796
339.93	19.545
340.29	18.569
340.65	18.449
341.02	18.848
341.38	19.306
341.74	17.719
342.11	19.039
342.47	19.207
342.83	19.349
343.20	19.394
343.56	18.955
343.92	17.456
344.28	19.218
344.65	18.573
345.01	17.256
345.37	17.753
345.73	18.020
346.10	19.437
346.46	18.136
346.82	18.287
347.19	17.962
347.55	18.309
347.91	19.175
348.27	19.721
348.63	19.064
349.00	17.233
349.36	18.391
349.72	19.166
350.08	18.476
350.45	18.063
350.81	18.440
351.17	19.206
351.53	17.854
351.89	18.399
352.26	18.706
352.62	18.364
352.98	18.801
353.34	17.995
353.70	18.003
354.07	17.984
354.43	16.984
354.79	18.021
355.15	17.957
355.51	19.025
355.87	18.612
356.24	19.218
356.60	17.803
356.96	18.343
357.32	17.989
357.68	18.031
358.04	18.844
358.40	18.131
358.77	18.232
359.13	17.522
359.49	17.647
359.85	16.825
360.21	16.826
360.57	17.743
360.93	17.154
361.29	18.141
361.66	17.260
362.02	18.134
362.38	17.490
362.74	17.262
363.10	17.246
363.46	16.948
363.82	17.007
364.18	17.621
364.54	16.270
364.90	17.847
365.26	17.500
365.62	16.508
365.98	16.874
366.35	16.476
366.71	16.703
367.07	17.334
367.43	17.271
367.79	16.916
368.15	19.109
368.51	16.715
368.87	17.273
369.23	16.825
369.59	17.958
369.95	17.059
370.31	17.023
370.67	16.377
371.03	17.228
371.39	16.472
371.75	16.985
372.11	16.145
372.47	17.962
372.83	17.939
373.19	16.618
373.55	16.408
373.91	17.158
374.27	16.495
374.63	16.945
374.99	17.726
375.35	16.818
375.71	16.175
376.07	16.392
376.42	16.025
376.78	17.164
377.14	16.350
377.50	16.755
377.86	15.758
378.22	16.814
378.58	15.414
378.94	16.153
379.30	15.394
379.66	15.736
380.02	16.339
380.38	15.726
380.74	16.026
381.09	16.381
381.45	17.148
381.81	16.155
382.17	15.605
382.53	16.478
382.89	17.222
383.25	15.760
383.61	16.047
383.97	15.697
384.32	15.783
384.68	15.428
385.04	15.857
385.40	15.666
385.76	15.971
386.12	16.904
386.48	16.551
386.83	15.843
387.19	16.450
387.55	15.894
387.91	15.780
388.27	16.002
388.62	16.595
388.98	15.479
389.34	16.771
389.70	16.002
390.06	16.223
390.42	16.083
390.77	16.221
391.13	15.316
391.49	16.307
391.85	15.786
392.20	15.142
392.56	15.341
392.92	16.068
393.28	14.911
393.64	15.588
393.99	16.127
394.35	15.323
394.71	16.311
395.07	14.829
395.42	15.760
395.78	15.712
396.14	15.829
396.50	16.792
396.85	15.702
397.21	15.290
397.57	15.685
397.92	15.925
398.28	15.078
398.64	15.830
399.00	15.613
399.35	15.003
399.71	15.625
400.07	15.435
400.42	16.012
400.78	15.742
401.14	15.671
401.49	16.000
401.85	15.124
402.21	15.210
402.57	14.806
402.92	15.700
403.28	15.990
403.63	15.408
403.99	15.350
404.35	15.152
404.70	15.468
405.06	14.851
405.42	16.469
405.77	14.229
406.13	15.068
406.49	15.139
406.84	14.885
407.20	15.248
407.55	16.146
407.91	15.933
408.27	15.699
408.62	15.774
408.98	15.380
409.34	15.314
409.69	16.645
410.05	14.932
410.40	15.352
410.76	15.890
411.11	15.440
411.47	15.208
411.83	15.761
412.18	15.275
412.54	15.504
412.89	14.819
413.25	15.466
413.60	15.256
413.96	15.908
414.31	15.371
414.67	14.639
415.03	15.695
415.38	16.044
415.74	15.113
416.09	16.068
416.45	14.926
416.80	16.061
417.16	16.354
417.51	15.528
417.87	14.708
418.22	16.151
418.58	15.752
418.93	15.233
419.29	15.277
419.64	15.365
420.00	15.427
420.35	15.072
420.71	15.481
421.06	15.334
421.42	15.029
421.77	15.471
422.12	14.935
422.48	15.273
422.83	15.492
423.19	15.249
423.54	15.612
423.90	15.362
424.25	15.299
424.61	14.821
424.96	15.219
425.31	14.950
425.67	15.056
426.02	15.714
426.38	15.324
426.73	15.214
427.09	15.805
427.44	14.779
427.79	14.664
428.15	15.833
428.50	14.980
428.85	16.150
429.21	15.130
429.56	14.774
429.92	14.997
430.27	14.300
430.62	13.978
430.98	15.153
431.33	14.897
431.68	14.974
432.04	14.164
432.39	14.963
432.74	15.141
433.10	15.450
433.45	15.335
433.80	15.022
434.16	15.972
434.51	14.947
434.86	15.906
435.22	15.342
435.57	15.380
435.92	14.687
436.28	15.421
436.63	15.287
436.98	15.341
437.34	15.564
437.69	15.286
438.04	15.233
438.39	15.463
438.75	15.224
439.10	15.475
439.45	15.230
439.81	15.227
440.16	15.302
440.51	15.583
440.86	15.634
441.22	15.072
441.57	14.597
441.92	15.148
442.27	14.909
442.63	15.429
442.98	16.113
443.33	15.109
443.68	14.765
444.03	14.690
444.39	14.411
444.74	15.530
445.09	15.364
445.44	15.473
445.79	15.933
446.15	15.564
446.50	15.132
446.85	14.800
447.20	15.043
447.55	15.131
447.91	15.389
448.26	15.303
448.61	15.206
448.96	16.058
449.31	16.085
449.66	15.701
450.02	15.042
450.37	15.079
450.72	15.172
451.07	14.625
451.42	15.562
451.77	15.443
452.12	15.300
452.47	15.858
452.83	15.967
453.18	15.587
453.53	15.832
453.88	15.180
454.23	15.421
454.58	16.051
454.93	16.084
455.28	15.399
455.63	15.655
455.98	16.012
456.34	14.698
456.69	15.780
457.04	16.161
457.39	15.663
457.74	15.206
458.09	15.641
458.44	15.393
458.79	14.642
459.14	15.068
459.49	15.528
459.84	15.235
460.19	15.734
460.54	15.625
460.89	15.250
461.24	15.968
461.59	16.444
461.94	14.735
462.29	16.261
462.64	16.018
462.99	14.444
463.34	17.333
463.69	15.885
464.04	16.174
464.39	14.783
464.74	15.330
465.09	14.717
465.44	15.734
465.79	14.653
466.14	14.943
466.49	14.739
466.84	15.587
467.19	16.295
467.54	15.688
467.89	15.126
468.24	16.172
468.59	15.446
468.94	15.394
469.29	15.488
469.64	17.470
469.99	15.765
470.34	15.852
470.68	16.020
471.03	15.510
471.38	16.261
471.73	16.322
472.08	16.776
472.43	15.327
472.78	16.063
473.13	16.624
473.48	15.980
473.83	16.037
474.17	15.246
474.52	16.129
474.87	16.462
475.22	15.264
475.57	15.637
475.92	15.560
476.27	15.671
476.61	14.782
476.96	15.503
477.31	14.966
477.66	15.536
478.01	15.264
478.36	15.865
478.70	14.382
479.05	15.176
479.40	15.865
479.75	15.760
480.10	14.811
480.45	15.040
480.79	14.811
481.14	15.900
481.49	15.425
481.84	14.358
482.19	15.175
482.53	15.092
482.88	14.891
483.23	15.234
483.58	15.150
483.92	14.761
484.27	14.684
484.62	14.828
484.97	14.466
485.31	14.315
485.66	13.741
486.01	12.859
486.36	12.488
486.70	12.354
487.05	12.968
487.40	13.279
487.75	13.308
488.09	13.649
488.44	13.876
488.79	14.973
489.13	15.050
489.48	14.478
489.83	15.106
490.17	14.862
490.52	14.526
490.87	14.880
491.22	15.007
491.56	14.305
491.91	15.403
492.26	14.699
492.60	14.516
492.95	14.406
493.30	15.280
493.64	15.166
493.99	14.810
494.34	14.894
494.68	15.385
495.03	15.414
495.37	14.239
495.72	14.864
496.07	14.617
496.41	14.336
496.76	14.908
497.11	14.768
497.45	14.625
497.80	15.211
498.14	14.348
498.49	14.732
498.84	14.525
499.18	15.286
499.53	15.385
499.87	15.191
500.22	15.120
500.56	15.534
500.91	15.144
501.26	15.647
501.60	15.093
501.95	14.711
502.29	15.370
502.64	14.898
502.98	15.101
503.33	15.082
503.67	15.128
504.02	14.640
504.36	15.489
504.71	15.095
505.06	15.470
505.40	15.314
505.75	14.609
506.09	15.598
506.44	15.195
506.78	15.392
507.13	14.690
507.47	15.657
507.82	15.198
508.16	15.603
508.51	14.967
508.85	15.541
509.19	15.255
509.54	14.592
509.88	15.404
510.23	14.704
510.57	15.996
510.92	15.588
511.26	15.057
511.61	16.131
511.95	14.718
512.30	15.270
512.64	15.314
512.98	15.541
513.33	15.953
513.67	15.048
514.02	14.827
514.36	15.565
514.70	15.329
515.05	14.835
515.39	15.423
515.74	15.597
516.08	15.875
516.42	16.204
516.77	16.332
517.11	14.928
517.46	16.027
517.80	15.970
518.14	15.345
518.49	16.161
518.83	15.966
519.17	15.069
519.52	15.789
519.86	15.973
520.20	16.879
520.55	16.098
520.89	16.363
521.23	17.310
521.58	16.206
521.92	16.167
522.26	15.619
522.61	15.826
522.95	16.083
523.29	15.764
523.64	16.341
523.98	16.944
524.32	16.586
524.66	16.236
525.01	16.789
525.35	15.366
525.69	16.195
526.04	16.075
526.38	16.656
526.72	16.258
527.06	16.384
527.41	15.470
527.75	16.720
528.09	16.378
528.43	17.145
528.78	15.857
529.12	16.242
529.46	16.350
529.80	16.584
530.15	17.009
530.49	14.954
530.83	16.582
531.17	16.514
531.51	17.185
531.86	16.645
532.20	16.884
532.54	17.297
532.88	17.073
533.22	16.115
533.57	17.346
533.91	16.014
534.25	16.160
534.59	16.718
534.93	15.705
535.27	16.234
535.62	16.606
535.96	16.510
536.30	15.957
536.64	16.484
536.98	16.987
537.32	16.129
537.66	16.600
538.01	15.866
538.35	17.001
538.69	16.975
539.03	16.634
539.37	15.144
539.71	14.906
540.05	16.209
540.39	16.412
540.73	15.459
541.07	17.067
541.42	16.373
541.76	17.097
542.10	16.365
542.44	17.086
542.78	16.930
543.12	15.291
543.46	16.262
543.80	16.786
544.14	15.661
544.48	16.508
544.82	15.779
545.16	16.591
545.50	16.710
545.84	16.196
546.18	16.162
546.52	16.173
546.86	15.808
547.20	17.465
547.54	16.566
547.88	17.028
548.22	15.691
548.56	16.352
548.90	15.877
549.24	15.892
549.58	16.576
549.92	16.209
550.26	17.259
550.60	17.220
550.94	17.183
551.28	15.582
551.62	17.613
551.96	15.789
552.30	16.382
552.64	17.241
552.98	16.881
553.32	16.386
553.66	16.701
554.00	16.884
554.34	16.011
554.68	17.382
555.02	17.207
555.36	16.075
555.69	17.118
556.03	15.747
556.37	16.030
556.71	15.894
557.05	16.947
557.39	16.305
557.73	15.808
558.07	17.404
558.41	17.004
558.75	16.752
559.08	16.928
559.42	16.629
559.76	16.912
560.10	17.345
560.44	16.562
560.78	15.835
561.12	16.359
561.45	17.014
561.79	15.953
562.13	16.432
562.47	17.008
562.81	17.155
563.15	16.522
563.48	16.910
563.82	15.982
564.16	16.285
564.50	16.146
564.84	16.814
565.17	15.187
565.51	16.677
565.85	16.497
566.19	16.093
566.52	16.339
566.86	16.154
567.20	16.215
567.54	15.525
567.88	14.775
568.21	15.556
568.55	15.420
568.89	14.981
569.23	14.439
569.56	14.130
569.90	14.566
570.24	14.424
570.57	14.247
570.91	14.286
571.25	13.620
571.59	13.549
571.92	13.710
572.26	14.096
572.60	13.333
572.93	13.523
573.27	13.990
573.61	13.875
573.95	13.824
574.28	13.065
574.62	12.925
574.96	13.309
575.29	13.288
575.63	13.161
575.97	13.304
576.30	13.728
576.64	13.470
576.98	13.369
577.31	13.262
577.65	13.116
577.98	12.947
578.32	12.986
578.66	13.229
578.99	12.851
579.33	12.854
579.67	12.600
580.00	13.258
580.34	13.004
580.67	12.905
581.01	13.560
581.35	12.988
581.68	13.018
582.02	12.804
582.35	12.586
582.69	12.659
583.02	12.764
583.36	13.143
583.70	13.686
584.03	13.297
584.37	13.887
584.70	13.636
585.04	13.723
585.37	13.350
585.71	13.181
586.04	13.047
586.38	12.853
586.72	13.919
587.05	13.067
587.39	13.034
587.72	13.038
588.06	13.794
588.39	13.800
588.73	13.699
589.06	14.117
589.40	14.141
589.73	14.009
590.07	13.701
590.40	14.030
590.73	14.208
591.07	15.222
591.40	14.720
591.74	14.978
592.07	14.921
592.41	14.965
592.74	14.195
593.08	14.057
593.41	14.236
593.75	13.929
594.08	14.147
594.41	14.351
594.75	13.678
595.08	14.209
595.42	13.905
595.75	14.316
596.09	14.457
596.42	14.420
596.75	14.605
597.09	14.978
597.42	14.418
597.75	14.748
598.09	15.087
598.42	14.605
598.76	14.512
599.09	14.025
599.42	13.865
599.76	14.019
600.09	13.698
600.42	13.440
600.76	13.750
601.09	14.208
601.42	14.346
601.76	14.118
602.09	14.545
602.42	14.650
602.76	15.195
603.09	14.988
603.42	14.213
603.76	14.101
604.09	13.920
604.42	14.554
604.76	15.099
605.09	14.592
605.42	14.408
605.75	14.611
606.09	14.599
606.42	13.731
606.75	14.517
607.09	14.609
607.42	13.607
607.75	13.755
608.08	14.416
608.42	14.747
608.75	14.878
609.08	14.847
609.41	15.326
609.75	15.102
610.08	15.080
610.41	14.758
610.74	14.806
611.07	14.872
611.41	15.113
611.74	15.837
612.07	15.217
612.40	15.740
612.73	15.211
613.07	15.517
613.40	15.113
613.73	15.364
614.06	15.269
614.39	15.312
614.72	15.263
615.06	15.179
615.39	14.384
615.72	14.877
616.05	15.524
616.38	15.342
616.71	15.499
617.05	15.783
617.38	15.815
617.71	15.375
618.04	15.865
618.37	15.435
618.70	15.930
619.03	16.842
619.36	15.886
619.69	16.690
620.03	16.415
620.36	15.909
620.69	16.849
621.02	16.224
621.35	16.680
621.68	15.265
622.01	16.641
622.34	17.095
622.67	16.502
623.00	16.948
623.33	16.011
623.66	16.869
623.99	16.568
624.32	16.619
624.65	16.949
624.99	15.652
625.32	16.003
625.65	15.627
625.98	17.141
626.31	17.418
626.64	16.898
626.97	17.456
627.30	16.625
627.63	17.473
627.96	17.998
628.29	17.148
628.62	18.115
628.95	18.585
629.28	17.245
629.61	18.332
629.94	18.667
630.26	18.017
630.59	19.066
630.92	17.241
