SpectraSuite Data File
++++++++++++++++++++++++++++++++++++
Date: Thu May 14 16:15:34 PDT 2015
User: schluterlab
Dark Spectrum Present: Yes
Reference Spectrum Present: Yes
Number of Sampled Component Spectra: 1
Spectrometers: USB2E3373
Integration Time (usec): 3000 (USB2E3373)
Spectra Averaged: 3 (USB2E3373)
Boxcar Smoothing: 0 (USB2E3373)
Correct for Electrical Dark: No (USB2E3373)
Strobe/Lamp Enabled: No (USB2E3373)
Correct for Detector Non-linearity: No (USB2E3373)
Correct for Stray Light: No (USB2E3373)
Number of Pixels in Processed Spectrum: 2048
>>>>>Begin Processed Spectral Data<<<<<
178.53	0.000
178.91	71.429
179.29	-900.000
179.67	-1100.000
180.04	114.286
180.42	120.000
180.80	160.000
181.18	200.000
181.56	600.000
181.94	200.000
182.31	-25.000
182.69	166.667
183.07	-350.000
183.45	350.000
183.83	16.667
184.20	100.000
184.58	-300.000
184.96	-50.000
185.34	-11.111
185.72	-120.000
186.09	100.000
186.47	50.000
186.85	140.000
187.23	-11.111
187.61	-600.000
187.98	20.000
188.36	250.000
188.74	25.000
189.12	-200.000
189.49	-12.500
189.87	-112.500
190.25	0.000
190.63	-40.000
191.00	-122.222
191.38	0.000
191.76	-100.000
192.14	16.667
192.51	500.000
192.89	50.000
193.27	0.000
193.65	-100.000
194.02	-800.000
194.40	0.000
194.78	-57.143
195.15	0.000
195.53	0.000
195.91	0.000
196.29	150.000
196.66	-38.462
197.04	-800.000
197.42	-28.571
197.79	-500.000
198.17	25.000
198.55	-42.857
198.92	-11.111
199.30	12.500
199.68	9.091
200.05	-7.143
200.43	-450.000
200.81	100.000
201.18	0.000
201.56	122.222
201.94	0.000
202.31	133.333
202.69	-200.000
203.07	1000.000
203.44	44.444
203.82	-50.000
204.19	-100.000
204.57	-66.667
204.95	-50.000
205.32	-500.000
205.70	175.000
206.08	16.667
206.45	-83.333
206.83	340.000
207.20	-83.333
207.58	-40.000
207.96	-83.333
208.33	-133.333
208.71	66.667
209.08	33.333
209.46	0.000
209.84	83.333
210.21	50.000
210.59	-0.000
210.96	266.667
211.34	100.000
211.71	-37.500
212.09	-800.000
212.46	0.000
212.84	600.000
213.22	-220.000
213.59	125.000
213.97	-100.000
214.34	0.000
214.72	50.000
215.09	-50.000
215.47	0.000
215.84	42.857
216.22	350.000
216.59	20.000
216.97	-240.000
217.34	-175.000
217.72	-12.500
218.09	-200.000
218.47	-175.000
218.84	0.000
219.22	120.000
219.59	35.294
219.97	30.000
220.34	200.000
220.72	11.111
221.09	0.000
221.47	-233.333
221.84	0.000
222.22	-142.857
222.59	0.000
222.97	0.000
223.34	-200.000
223.72	-900.000
224.09	-100.000
224.46	-175.000
224.84	40.000
225.21	-128.571
225.59	-175.000
225.96	-300.000
226.34	11.538
226.71	133.333
227.08	50.000
227.46	53.333
227.83	-175.000
228.21	-15.789
228.58	62.500
228.95	250.000
229.33	58.333
229.70	-10.000
230.08	31.579
230.45	60.000
230.82	-33.333
231.20	21.429
231.57	100.000
231.95	-18.182
232.32	9.091
232.69	20.000
233.07	0.000
233.44	29.412
233.81	-30.000
234.19	27.778
234.56	4.545
234.93	27.586
235.31	36.842
235.68	33.333
236.05	-40.000
236.43	26.923
236.80	24.000
237.17	33.333
237.55	-21.212
237.92	-50.000
238.29	0.000
238.67	-2.273
239.04	-2.778
239.41	-35.714
239.79	0.000
240.16	0.000
240.53	-4.348
240.91	-29.412
241.28	1.639
241.65	-1.493
242.02	9.459
242.40	-16.923
242.77	17.333
243.14	-15.854
243.51	-7.895
243.89	-19.231
244.26	2.970
244.63	5.882
245.00	-2.804
245.38	-5.263
245.75	-16.814
246.12	0.000
246.49	-10.078
246.87	-4.286
247.24	1.987
247.61	7.237
247.98	-2.685
248.36	-5.556
248.73	-7.362
249.10	0.000
249.47	2.488
249.84	6.806
250.22	-2.073
250.59	-3.889
250.96	4.091
251.33	-3.061
251.70	2.564
252.08	2.500
252.45	1.639
252.82	-3.719
253.19	-1.172
253.56	0.760
253.94	-0.385
254.31	0.000
254.68	1.748
255.05	4.235
255.42	-1.361
255.79	1.294
256.16	-0.993
256.54	-0.662
256.91	-0.328
257.28	-4.918
257.65	-6.051
258.02	-3.835
258.39	-0.855
258.76	0.612
259.14	1.149
259.51	0.288
259.88	-0.567
260.25	0.556
260.62	1.370
260.99	2.186
261.36	0.268
261.73	-0.531
262.10	-2.473
262.47	-2.413
262.85	1.010
263.22	-3.377
263.59	-3.684
263.96	1.279
264.33	-4.092
264.70	0.741
265.07	0.000
265.44	4.762
265.81	-2.083
266.18	0.000
266.55	-1.116
266.92	0.000
267.29	-0.656
267.66	-1.330
268.03	-1.965
268.40	2.923
268.77	-0.456
269.14	-1.101
269.51	-0.658
269.88	1.434
270.25	0.805
270.62	-1.055
270.99	2.424
271.36	0.792
271.73	0.589
272.10	1.804
272.47	0.000
272.84	0.803
273.21	0.401
273.58	0.000
273.95	-1.154
274.32	-1.521
274.69	-1.741
275.06	1.465
275.43	-1.294
275.80	1.587
276.17	-0.556
276.54	-1.119
276.91	-2.504
277.28	0.181
277.65	0.539
278.02	-0.919
278.39	-0.362
278.76	-1.933
279.13	-0.177
279.50	0.859
279.87	1.968
280.23	-1.232
280.60	0.169
280.97	1.480
281.34	-1.019
281.71	2.200
282.08	0.831
282.45	-1.964
282.82	-0.628
283.19	-1.616
283.56	-1.311
283.92	0.450
284.29	1.738
284.66	-0.493
285.03	-0.962
285.40	1.236
285.77	-0.310
286.14	0.763
286.51	-0.304
286.87	-0.632
287.24	0.753
287.61	-0.897
287.98	0.000
288.35	-0.888
288.72	0.296
289.08	0.000
289.45	-0.888
289.82	-0.301
290.19	-1.006
290.56	-0.141
290.93	-0.285
291.29	0.964
291.66	-0.138
292.03	0.407
292.40	1.769
292.77	0.674
293.13	1.624
293.50	0.000
293.87	-0.537
294.24	1.600
294.60	0.000
294.97	-1.879
295.34	0.768
295.71	0.252
296.08	0.517
296.44	-0.245
296.81	-0.365
297.18	-0.498
297.55	-0.236
297.91	0.000
298.28	-0.592
298.65	0.000
299.02	-0.118
299.38	0.915
299.75	0.467
300.12	-1.505
300.48	-0.346
300.85	0.562
301.22	0.671
301.59	-1.598
301.95	0.226
302.32	1.667
302.69	-0.657
303.05	0.326
303.42	-0.333
303.79	0.104
304.15	0.210
304.52	-0.951
304.89	-0.105
305.25	-0.104
305.62	1.045
305.99	1.649
306.35	-0.504
306.72	0.517
307.09	0.102
307.45	-0.104
307.82	0.101
308.19	-1.009
308.55	0.386
308.92	0.487
309.29	0.862
309.65	-1.170
310.02	-0.198
310.38	-0.197
310.75	0.583
311.12	0.767
311.48	-0.098
311.85	-0.285
312.22	0.190
312.58	-0.563
312.95	0.096
313.31	0.000
313.68	1.374
314.05	1.536
314.41	0.638
314.78	0.545
315.14	0.272
315.51	0.923
315.87	0.720
316.24	0.457
316.61	1.332
316.97	-0.362
317.34	-0.617
317.70	-0.437
318.07	0.265
318.43	1.701
318.80	1.756
319.16	0.000
319.53	0.086
319.89	0.175
320.26	0.979
320.62	-0.266
320.99	-0.092
321.35	-0.370
321.72	0.186
322.08	0.090
322.45	-0.452
322.81	-0.090
323.18	0.531
323.54	0.000
323.91	0.890
324.27	0.000
324.64	1.259
325.00	0.415
325.37	1.638
325.73	0.826
326.10	1.298
326.46	1.547
326.83	1.201
327.19	0.630
327.56	1.028
327.92	0.157
328.29	0.484
328.65	0.503
329.01	-0.508
329.38	0.842
329.74	0.856
330.11	1.113
330.47	0.674
330.84	0.861
331.20	1.167
331.56	0.867
331.93	0.921
332.29	0.593
332.66	0.748
333.02	1.591
333.38	0.503
333.75	0.589
334.11	0.667
334.48	1.073
334.84	2.039
335.20	0.084
335.57	1.686
335.93	1.157
336.29	0.499
336.66	-0.084
337.02	0.585
337.38	1.871
337.75	0.661
338.11	0.589
338.47	1.158
338.84	0.085
339.20	0.505
339.56	0.577
339.93	0.411
340.29	0.483
340.65	0.324
341.02	1.596
341.38	2.102
341.74	-0.081
342.11	0.563
342.47	0.159
342.83	0.644
343.20	0.899
343.56	0.642
343.92	0.320
344.28	0.469
344.65	1.163
345.01	0.936
345.37	0.855
345.73	0.312
346.10	0.546
346.46	1.028
346.82	1.573
347.19	1.070
347.55	1.366
347.91	0.669
348.27	0.228
348.63	1.142
349.00	0.820
349.36	0.743
349.72	1.190
350.08	1.337
350.45	0.684
350.81	0.528
351.17	1.053
351.53	1.744
351.89	1.974
352.26	0.597
352.62	0.075
352.98	0.840
353.34	0.523
353.70	0.539
354.07	-0.075
354.43	0.076
354.79	0.449
355.15	1.251
355.51	1.535
355.87	-0.374
356.24	1.293
356.60	0.813
356.96	0.964
357.32	0.149
357.68	0.952
358.04	-0.374
358.40	0.299
358.77	1.389
359.13	-0.074
359.49	-0.297
359.85	0.580
360.21	0.502
360.57	0.574
360.93	1.128
361.29	1.404
361.66	0.434
362.02	1.879
362.38	0.351
362.74	0.768
363.10	0.619
363.46	0.485
363.82	0.213
364.18	0.774
364.54	0.346
364.90	1.472
365.26	-0.207
365.62	1.667
365.98	0.749
366.35	1.208
366.71	0.408
367.07	0.203
367.43	1.051
367.79	1.128
368.15	1.338
368.51	0.541
368.87	1.176
369.23	1.200
369.59	0.410
369.95	0.879
370.31	0.473
370.67	0.688
371.03	1.247
371.39	0.336
371.75	0.757
372.11	1.016
372.47	0.880
372.83	1.047
373.19	0.934
373.55	0.474
373.91	0.136
374.27	1.423
374.63	0.609
374.99	0.663
375.35	1.623
375.71	0.710
376.07	1.227
376.42	1.259
376.78	1.243
377.14	0.936
377.50	0.127
377.86	1.355
378.22	0.599
378.58	0.773
378.94	1.115
379.30	0.937
379.66	0.941
380.02	0.808
380.38	0.864
380.74	1.634
381.09	0.755
381.45	1.534
381.81	0.995
382.17	1.069
382.53	1.287
382.89	1.298
383.25	0.703
383.61	0.116
383.97	0.766
384.32	0.538
384.68	0.232
385.04	1.446
385.40	1.002
385.76	1.231
386.12	1.616
386.48	0.588
386.83	1.132
387.19	0.637
387.55	-0.059
387.91	0.685
388.27	1.328
388.62	0.916
388.98	0.959
389.34	1.650
389.70	0.697
390.06	0.533
390.42	1.024
390.77	1.866
391.13	1.115
391.49	1.147
391.85	0.303
392.20	0.712
392.56	1.831
392.92	1.745
393.28	1.271
393.64	0.950
393.99	1.278
394.35	0.935
394.71	1.257
395.07	0.359
395.42	1.314
395.78	1.767
396.14	0.891
396.50	0.594
396.85	1.491
397.21	1.538
397.57	0.589
397.92	0.974
398.28	0.652
398.64	0.400
399.00	0.314
399.35	1.361
399.71	0.978
400.07	0.842
400.42	0.640
400.78	0.810
401.14	0.968
401.49	1.137
401.85	0.581
402.21	0.927
402.57	1.232
402.92	1.300
403.28	0.585
403.63	-0.060
403.99	0.950
404.35	1.023
404.70	1.303
405.06	1.359
405.42	0.937
405.77	0.273
406.13	0.756
406.49	0.394
406.84	1.108
407.20	0.894
407.55	1.151
407.91	0.440
408.27	1.060
408.62	0.814
408.98	1.045
409.34	0.352
409.69	0.989
410.05	1.758
410.40	1.276
410.76	0.449
411.11	1.636
411.47	1.106
411.83	1.411
412.18	0.964
412.54	1.660
412.89	1.455
413.25	0.903
413.60	0.862
413.96	1.399
414.31	1.473
414.67	1.610
415.03	0.677
415.38	0.631
415.74	1.344
416.09	0.987
416.45	1.002
416.80	0.245
417.16	0.894
417.51	1.494
417.87	1.533
418.22	1.617
418.58	1.549
418.93	1.979
419.29	1.048
419.64	1.381
420.00	0.475
420.35	1.460
420.71	1.034
421.06	1.035
421.42	0.860
421.77	0.431
422.12	1.374
422.48	1.331
422.83	1.862
423.19	1.645
423.54	1.327
423.90	1.215
424.25	1.547
424.61	0.459
424.96	1.098
425.31	1.486
425.67	1.288
426.02	0.885
426.38	1.091
426.73	0.614
427.09	1.788
427.44	0.983
427.79	1.493
428.15	0.457
428.50	1.011
428.85	1.550
429.21	1.915
429.56	0.494
429.92	1.081
430.27	1.542
430.62	1.124
430.98	1.033
431.33	0.831
431.68	0.479
432.04	0.863
432.39	0.643
432.74	0.799
433.10	1.244
433.45	0.780
433.80	1.448
434.16	1.291
434.51	1.182
434.86	0.814
435.22	1.382
435.57	1.179
435.92	1.113
436.28	0.853
436.63	0.655
436.98	0.913
437.34	0.958
437.69	0.275
438.04	1.111
438.39	0.804
438.75	0.498
439.10	2.008
439.45	1.509
439.81	1.299
440.16	0.697
440.51	1.394
440.86	0.778
441.22	1.340
441.57	0.996
441.92	0.970
442.27	1.717
442.63	1.093
442.98	1.281
443.33	1.473
443.68	1.982
444.03	1.411
444.39	1.664
444.74	1.021
445.09	0.963
445.44	0.632
445.79	1.437
446.15	0.925
446.50	1.395
446.85	1.459
447.20	1.112
447.55	0.889
447.91	0.995
448.26	1.004
448.61	1.275
448.96	1.288
449.31	0.901
449.66	0.490
450.02	1.213
450.37	1.811
450.72	1.130
451.07	1.538
451.42	1.271
451.77	0.778
452.12	0.790
452.47	0.357
452.83	0.845
453.18	1.284
453.53	0.919
453.88	1.380
454.23	0.847
454.58	1.161
454.93	0.789
455.28	1.385
455.63	1.535
455.98	1.676
456.34	1.060
456.69	0.647
457.04	0.946
457.39	0.887
457.74	1.342
458.09	0.934
458.44	1.616
458.79	0.516
459.14	1.468
459.49	1.415
459.84	1.312
460.19	1.055
460.54	1.533
460.89	0.741
461.24	0.632
461.59	1.716
461.94	0.685
462.29	1.512
462.64	0.483
462.99	1.758
463.34	0.584
463.69	1.934
464.04	2.168
464.39	1.457
464.74	1.710
465.09	1.326
465.44	1.019
465.79	1.322
466.14	1.199
466.49	1.526
466.84	0.937
467.19	0.925
467.54	0.470
467.89	0.460
468.24	0.997
468.59	0.579
468.94	0.758
469.29	0.840
469.64	1.081
469.99	0.892
470.34	1.300
470.68	0.615
471.03	1.048
471.38	0.719
471.73	0.260
472.08	0.571
472.43	1.505
472.78	0.945
473.13	1.075
473.48	1.450
473.83	1.277
474.17	0.703
474.52	0.902
474.87	1.772
475.22	1.634
475.57	1.350
475.92	1.195
476.27	0.852
476.61	0.935
476.96	0.365
477.31	1.485
477.66	0.839
478.01	1.118
478.36	0.997
478.70	1.478
479.05	1.278
479.40	1.135
479.75	1.729
480.10	1.421
480.45	0.866
480.79	1.361
481.14	0.551
481.49	0.772
481.84	1.044
482.19	1.247
482.53	1.093
482.88	0.842
483.23	0.756
483.58	0.742
483.92	1.108
484.27	1.016
484.62	1.196
484.97	1.633
485.31	0.704
485.66	1.080
486.01	1.053
486.36	1.148
486.70	1.317
487.05	1.307
487.40	1.277
487.75	1.450
488.09	1.127
488.44	1.326
488.79	1.518
489.13	1.122
489.48	0.738
489.83	1.529
490.17	0.891
490.52	1.232
490.87	1.058
491.22	0.737
491.56	1.536
491.91	1.047
492.26	1.341
492.60	1.224
492.95	1.580
493.30	1.210
493.64	1.533
493.99	1.009
494.34	0.740
494.68	0.514
495.03	1.101
495.37	0.888
495.72	0.862
496.07	1.709
496.41	1.030
496.76	1.126
497.11	0.679
497.45	0.906
497.80	1.022
498.14	0.862
498.49	0.965
498.84	0.960
499.18	1.125
499.53	1.525
499.87	1.407
500.22	0.134
500.56	0.810
500.91	0.870
501.26	1.318
501.60	0.884
501.95	1.172
502.29	0.834
502.64	1.662
502.98	1.381
503.33	1.166
503.67	0.916
504.02	0.744
504.36	1.519
504.71	1.240
505.06	1.182
505.40	1.051
505.75	1.412
506.09	1.059
506.44	0.882
506.78	1.422
507.13	0.922
507.47	0.947
507.82	0.947
508.16	0.669
508.51	0.516
508.85	0.945
509.19	1.042
509.54	1.201
509.88	0.971
510.23	1.797
510.57	1.402
510.92	1.306
511.26	1.154
511.61	0.579
511.95	1.269
512.30	1.428
512.64	0.600
512.98	1.101
513.33	1.159
513.67	1.224
514.02	1.277
514.36	1.432
514.70	0.625
515.05	0.938
515.39	1.207
515.74	2.015
516.08	1.373
516.42	1.256
516.77	0.683
517.11	0.774
517.46	1.644
517.80	2.031
518.14	1.578
518.49	1.302
518.83	1.171
519.17	1.400
519.52	1.520
519.86	1.003
520.20	1.597
520.55	1.369
520.89	1.070
521.23	1.396
521.58	1.130
521.92	1.133
522.26	0.859
522.61	1.100
522.95	0.923
523.29	1.207
523.64	0.168
523.98	1.198
524.32	2.521
524.66	1.366
525.01	1.302
525.35	1.149
525.69	0.928
526.04	0.861
526.38	0.920
526.72	1.269
527.06	1.232
527.41	1.633
527.75	1.781
528.09	1.417
528.43	1.421
528.78	0.925
529.12	1.376
529.46	1.686
529.80	1.831
530.15	1.275
530.49	0.830
530.83	1.240
531.17	0.777
531.51	1.023
531.86	1.262
532.20	1.890
532.54	1.556
532.88	1.333
533.22	1.532
533.57	1.269
533.91	1.515
534.25	1.357
534.59	0.862
534.93	0.226
535.27	1.634
535.62	1.933
535.96	1.220
536.30	0.235
536.64	1.562
536.98	1.661
537.32	1.420
537.66	1.435
538.01	1.148
538.35	0.914
538.69	0.901
539.03	1.471
539.37	1.649
539.71	2.042
540.05	1.559
540.39	0.611
540.73	0.971
541.07	1.410
541.42	1.418
541.76	1.068
542.10	1.206
542.44	1.279
542.78	1.277
543.12	1.132
543.46	1.282
543.80	1.259
544.14	1.317
544.48	1.537
544.82	2.154
545.16	1.252
545.50	1.618
545.84	1.225
546.18	2.284
546.52	1.146
546.86	0.818
547.20	0.827
547.54	0.811
547.88	0.723
548.22	1.111
548.56	0.761
548.90	1.015
549.24	1.398
549.58	1.136
549.92	0.893
550.26	1.294
550.60	1.851
550.94	1.617
551.28	1.584
551.62	1.617
551.96	1.230
552.30	1.338
552.64	1.369
552.98	1.435
553.32	0.707
553.66	0.579
554.00	1.450
554.34	0.901
554.68	0.968
555.02	0.854
555.36	1.512
555.69	1.089
556.03	0.757
556.37	1.377
556.71	1.332
557.05	1.470
557.39	1.128
557.73	1.519
558.07	0.993
558.41	1.794
558.75	1.623
559.08	1.809
559.42	1.578
559.76	1.900
560.10	1.005
560.44	1.385
560.78	2.062
561.12	1.047
561.45	1.277
561.79	1.099
562.13	1.602
562.47	1.295
562.81	1.013
563.15	1.326
563.48	1.740
563.82	0.786
564.16	1.151
564.50	1.430
564.84	1.239
565.17	1.412
565.51	0.806
565.85	1.603
566.19	0.806
566.52	1.112
566.86	1.188
567.20	1.088
567.54	0.584
567.88	0.968
568.21	1.087
568.55	1.247
568.89	1.407
569.23	1.859
569.56	0.938
569.90	1.069
570.24	1.349
570.57	0.866
570.91	1.133
571.25	1.244
571.59	1.614
571.92	1.119
572.26	1.323
572.60	1.775
572.93	1.308
573.27	1.349
573.61	1.244
573.95	1.287
574.28	1.472
574.62	1.251
574.96	1.103
575.29	1.300
575.63	1.109
575.97	1.437
576.30	1.431
576.64	1.336
576.98	1.458
577.31	1.380
577.65	1.321
577.98	1.073
578.32	1.232
578.66	1.263
578.99	1.331
579.33	1.201
579.67	1.337
580.00	1.528
580.34	1.374
580.67	1.280
581.01	1.168
581.35	1.227
581.68	1.313
582.02	1.336
582.35	1.480
582.69	1.317
583.02	1.327
583.36	1.438
583.70	1.182
584.03	1.248
584.37	1.210
584.70	1.027
585.04	1.209
585.37	1.193
585.71	1.402
586.04	1.365
586.38	1.253
586.72	0.852
587.05	0.921
587.39	1.197
587.72	1.196
588.06	1.112
588.39	1.444
588.73	1.243
589.06	1.100
589.40	1.106
589.73	1.735
590.07	1.127
590.40	1.420
590.73	1.449
591.07	1.378
591.40	1.050
591.74	1.113
592.07	1.705
592.41	1.065
592.74	1.349
593.08	1.656
593.41	1.458
593.75	1.236
594.08	1.151
594.41	1.122
594.75	0.830
595.08	0.908
595.42	1.331
595.75	1.453
596.09	1.525
596.42	0.896
596.75	1.389
597.09	1.697
597.42	1.073
597.75	1.607
598.09	1.389
598.42	1.649
598.76	1.070
599.09	1.388
599.42	1.442
599.76	1.255
600.09	1.802
600.42	1.602
600.76	1.420
601.09	1.162
601.42	1.407
601.76	1.414
602.09	1.036
602.42	0.945
602.76	1.292
603.09	0.991
603.42	1.590
603.76	0.705
604.09	1.916
604.42	1.284
604.76	0.951
605.09	1.316
605.42	1.396
605.75	1.615
606.09	0.933
606.42	0.985
606.75	0.975
607.09	1.075
607.42	1.387
607.75	1.485
608.08	1.539
608.42	1.370
608.75	1.368
609.08	0.976
609.41	1.764
609.75	0.893
610.08	1.539
610.41	1.444
610.74	1.092
611.07	0.933
611.41	1.704
611.74	1.709
612.07	1.449
612.40	0.760
612.73	0.978
613.07	0.782
613.40	1.155
613.73	1.348
614.06	1.129
614.39	1.361
614.72	0.970
615.06	1.396
615.39	1.305
615.72	1.611
616.05	1.117
616.38	1.463
616.71	1.672
617.05	1.118
617.38	1.873
617.71	1.458
618.04	1.403
618.37	1.475
618.70	1.697
619.03	0.896
619.36	1.048
619.69	0.833
620.03	0.816
620.36	1.411
620.69	1.049
621.02	1.312
621.35	1.016
621.68	1.663
622.01	1.068
622.34	0.488
622.67	1.718
623.00	-0.135
623.33	1.460
623.66	1.621
623.99	0.790
624.32	2.079
624.65	0.772
624.99	1.300
625.32	1.960
625.65	1.011
625.98	0.407
626.31	1.630
626.64	2.198
626.97	0.825
627.30	0.000
627.63	0.975
627.96	2.553
628.29	1.868
628.62	0.252
628.95	0.088
629.28	0.170
629.61	0.926
629.94	0.586
630.26	0.254
630.59	0.777
630.92	0.346
631.25	0.984
631.58	0.377
631.91	0.187
632.24	0.576
632.57	1.233
632.90	1.003
633.23	0.816
633.56	1.735
633.89	0.517
634.22	1.871
634.55	0.522
634.88	0.649
635.20	1.615
635.53	1.356
635.86	1.083
636.19	1.697
636.52	1.688
636.85	1.328
637.18	-0.416
637.51	0.108
637.83	1.107
638.16	1.152
638.49	0.000
638.82	-0.113
639.15	1.145
639.48	1.617
639.81	0.924
640.13	1.767
640.46	-0.970
640.79	0.245
641.12	2.733
641.45	0.502
641.77	2.439
642.10	0.000
642.43	1.995
642.76	-0.271
643.09	1.096
643.41	0.280
643.74	0.552
644.07	2.483
644.40	0.566
644.73	1.161
645.05	-0.734
645.38	2.302
645.71	0.000
646.04	3.156
646.36	-0.438
646.69	-0.307
647.02	2.141
647.35	-0.611
647.67	1.288
648.00	-0.159
648.33	0.901
648.66	1.569
648.98	1.224
649.31	1.624
649.64	2.523
649.96	0.796
650.29	-0.695
650.62	0.566
650.94	1.502
651.27	-0.749
651.60	0.292
651.92	-0.912
652.25	1.302
652.58	1.513
652.90	0.000
653.23	1.831
653.56	1.427
653.88	2.809
654.21	1.690
654.54	1.879
654.86	1.983
655.19	0.753
655.52	1.995
655.84	1.298
656.17	1.595
656.49	2.198
656.82	2.375
657.15	1.918
