SpectraSuite Data File
++++++++++++++++++++++++++++++++++++
Date: Thu May 14 16:15:44 PDT 2015
User: schluterlab
Dark Spectrum Present: Yes
Reference Spectrum Present: Yes
Number of Sampled Component Spectra: 1
Spectrometers: USB2E3373
Integration Time (usec): 3000 (USB2E3373)
Spectra Averaged: 3 (USB2E3373)
Boxcar Smoothing: 0 (USB2E3373)
Correct for Electrical Dark: No (USB2E3373)
Strobe/Lamp Enabled: No (USB2E3373)
Correct for Detector Non-linearity: No (USB2E3373)
Correct for Stray Light: No (USB2E3373)
Number of Pixels in Processed Spectrum: 2048
>>>>>Begin Processed Spectral Data<<<<<
178.53	0.000
178.91	100.000
179.29	-1400.000
179.67	-1100.000
180.04	142.857
180.42	-40.000
180.80	120.000
181.18	600.000
181.56	200.000
181.94	-25.000
182.31	175.000
182.69	-100.000
183.07	0.000
183.45	200.000
183.83	133.333
184.20	100.000
184.58	-500.000
184.96	-225.000
185.34	22.222
185.72	100.000
186.09	177.778
186.47	-100.000
186.85	200.000
187.23	-88.889
187.61	-1200.000
187.98	40.000
188.36	175.000
188.74	-125.000
189.12	-100.000
189.49	-18.750
189.87	0.000
190.25	11.111
190.63	-100.000
191.00	-100.000
191.38	0.000
191.76	-150.000
192.14	-166.667
192.51	100.000
192.89	66.667
193.27	0.000
193.65	-42.857
194.02	-1100.000
194.40	-85.714
194.78	57.143
195.15	0.000
195.53	45.455
195.91	0.000
196.29	-200.000
196.66	7.692
197.04	-800.000
197.42	28.571
197.79	-150.000
198.17	-37.500
198.55	57.143
198.92	100.000
199.30	12.500
199.68	9.091
200.05	-21.429
200.43	-150.000
200.81	157.143
201.18	0.000
201.56	166.667
201.94	0.000
202.31	533.333
202.69	-77.778
203.07	-400.000
203.44	-111.111
203.82	-250.000
204.19	-25.000
204.57	-183.333
204.95	-100.000
205.32	-1400.000
205.70	175.000
206.08	-66.667
206.45	83.333
206.83	300.000
207.20	-116.667
207.58	-200.000
207.96	-266.667
208.33	-66.667
208.71	75.000
209.08	83.333
209.46	0.000
209.84	83.333
210.21	550.000
210.59	-0.000
210.96	33.333
211.34	-50.000
211.71	-25.000
212.09	-700.000
212.46	0.000
212.84	850.000
213.22	-60.000
213.59	-200.000
213.97	-20.000
214.34	200.000
214.72	216.667
215.09	25.000
215.47	0.000
215.84	57.143
216.22	550.000
216.59	-40.000
216.97	-220.000
217.34	25.000
217.72	-37.500
218.09	-325.000
218.47	-150.000
218.84	0.000
219.22	140.000
219.59	-35.294
219.97	10.000
220.34	250.000
220.72	-133.333
221.09	0.000
221.47	166.667
221.84	-10.000
222.22	-114.286
222.59	0.000
222.97	-12.500
223.34	-160.000
223.72	-400.000
224.09	-250.000
224.46	-325.000
224.84	280.000
225.21	-100.000
225.59	-125.000
225.96	-225.000
226.34	-15.385
226.71	233.333
227.08	-300.000
227.46	-6.667
227.83	-100.000
228.21	-15.789
228.58	62.500
228.95	300.000
229.33	41.667
229.70	-30.000
230.08	47.368
230.45	70.000
230.82	-266.667
231.20	-21.429
231.57	25.000
231.95	-9.091
232.32	27.273
232.69	30.000
233.07	-225.000
233.44	-64.706
233.81	-50.000
234.19	-11.111
234.56	-9.091
234.93	41.379
235.31	10.526
235.68	16.667
236.05	-60.000
236.43	30.769
236.80	52.000
237.17	0.000
237.55	33.333
237.92	-30.000
238.29	-16.129
238.67	2.273
239.04	8.333
239.41	-11.905
239.79	-15.217
240.16	14.815
240.53	-2.174
240.91	-3.922
241.28	3.279
241.65	20.896
242.02	13.514
242.40	-1.538
242.77	5.333
243.14	13.415
243.51	-3.947
243.89	-1.282
244.26	15.842
244.63	17.647
245.00	10.280
245.38	14.912
245.75	-1.770
246.12	12.698
246.49	8.527
246.87	10.000
247.24	19.205
247.61	15.132
247.98	3.356
248.36	16.049
248.73	12.883
249.10	13.661
249.47	18.408
249.84	15.183
250.22	8.808
250.59	13.889
250.96	15.455
251.33	7.143
251.70	12.821
252.08	8.750
252.45	11.475
252.82	9.091
253.19	10.547
253.56	16.730
253.94	11.154
254.31	14.015
254.68	15.385
255.05	17.590
255.42	12.245
255.79	10.032
256.16	12.583
256.54	9.934
256.91	14.426
257.28	9.508
257.65	12.102
258.02	10.914
258.39	11.111
258.76	15.902
259.14	11.782
259.51	10.663
259.88	9.065
260.25	13.333
260.62	15.890
260.99	14.754
261.36	14.477
261.73	12.997
262.10	14.011
262.47	13.673
262.85	14.394
263.22	13.247
263.59	10.000
263.96	14.322
264.33	11.509
264.70	11.358
265.07	13.842
265.44	16.780
265.81	12.963
266.18	12.018
266.55	11.161
266.92	12.984
267.29	13.786
267.66	14.634
268.03	13.755
268.40	12.526
268.77	10.706
269.14	11.233
269.51	11.842
269.88	13.730
270.25	11.469
270.62	14.768
270.99	14.545
271.36	14.059
271.73	12.574
272.10	15.431
272.47	15.832
272.84	15.462
273.21	11.022
273.58	13.508
273.95	10.962
274.32	11.787
274.69	11.025
275.06	12.088
275.43	13.494
275.80	13.404
276.17	12.407
276.54	10.821
276.91	13.059
277.28	12.116
277.65	12.029
278.02	13.971
278.39	11.594
278.76	11.599
279.13	10.993
279.50	12.199
279.87	15.027
280.23	10.563
280.60	15.085
280.97	12.829
281.34	12.394
281.71	13.875
282.08	11.794
282.45	11.784
282.82	12.245
283.19	11.632
283.56	12.787
283.92	13.213
284.29	13.902
284.66	11.494
285.03	10.417
285.40	11.901
285.77	9.907
286.14	11.298
286.51	11.872
286.87	11.848
287.24	13.855
287.61	11.659
287.98	11.329
288.35	12.426
288.72	11.243
289.08	11.859
289.45	10.059
289.82	10.843
290.19	10.489
290.56	12.817
290.93	12.126
291.29	11.019
291.66	11.157
292.03	10.176
292.40	12.109
292.77	9.838
293.13	10.961
293.50	9.461
293.87	10.067
294.24	10.533
294.60	10.493
294.97	8.322
295.34	12.420
295.71	10.719
296.08	10.594
296.44	10.907
296.81	9.988
297.18	9.091
297.55	10.613
297.91	10.083
298.28	9.242
298.65	9.037
299.02	11.098
299.38	9.725
299.75	9.463
300.12	9.028
300.48	8.295
300.85	9.111
301.22	7.830
301.59	8.333
301.95	9.605
302.32	9.889
302.69	8.981
303.05	9.358
303.42	9.202
303.79	9.062
304.15	10.305
304.52	8.774
304.89	10.785
305.25	9.317
305.62	9.195
305.99	9.072
306.35	8.569
306.72	9.514
307.09	9.137
307.45	9.627
307.82	9.889
308.19	8.678
308.55	9.836
308.92	9.445
309.29	9.100
309.65	8.772
310.02	7.426
310.38	8.858
310.75	9.126
311.12	8.821
311.48	8.798
311.85	9.212
312.22	8.444
312.58	9.296
312.95	9.178
313.31	7.227
313.68	9.432
314.05	10.840
314.41	9.836
314.78	8.901
315.14	9.347
315.51	9.880
315.87	9.541
316.24	9.315
316.61	9.769
316.97	8.869
317.34	8.377
317.70	9.869
318.07	9.612
318.43	9.439
318.80	10.702
319.16	10.129
319.53	8.826
319.89	8.063
320.26	9.964
320.62	9.663
320.99	9.695
321.35	10.444
321.72	10.419
322.08	9.739
322.45	10.208
322.81	9.928
323.18	9.912
323.54	10.948
323.91	10.498
324.27	10.671
324.64	10.831
325.00	10.779
325.37	10.893
325.73	11.157
326.10	11.598
326.46	11.482
326.83	12.170
327.19	11.654
327.56	11.779
327.92	11.408
328.29	11.048
328.65	12.563
329.01	12.014
329.38	12.721
329.74	12.158
330.11	13.099
330.47	12.553
330.84	12.748
331.20	12.333
331.56	12.392
331.93	12.050
332.29	12.373
332.66	12.292
333.02	12.228
333.38	12.416
333.75	11.700
334.11	13.344
334.48	12.376
334.84	13.679
335.20	12.007
335.57	12.985
335.93	13.223
336.29	11.481
336.66	12.868
337.02	13.545
337.38	12.160
337.75	14.215
338.11	13.204
338.47	12.490
338.84	12.775
339.20	13.058
339.56	14.003
339.93	12.972
340.29	13.124
340.65	13.869
341.02	13.248
341.38	14.470
341.74	12.994
342.11	13.757
342.47	11.914
342.83	13.849
343.20	13.900
343.56	13.873
343.92	13.931
344.28	12.891
344.65	13.798
345.01	12.793
345.37	13.997
345.73	12.860
346.10	13.729
346.46	13.133
346.82	12.734
347.19	13.751
347.55	13.733
347.91	13.150
348.27	12.822
348.63	13.709
349.00	13.721
349.36	13.457
349.72	13.616
350.08	13.893
350.45	12.624
350.81	12.217
351.17	12.782
351.53	13.268
351.89	13.212
352.26	12.239
352.62	11.940
352.98	13.053
353.34	12.248
353.70	13.328
354.07	13.562
354.43	12.680
354.79	13.164
355.15	13.319
355.51	13.231
355.87	13.388
356.24	13.308
356.60	12.491
356.96	12.750
357.32	12.491
357.68	12.958
358.04	13.473
358.40	13.731
358.77	12.646
359.13	12.555
359.49	12.491
359.85	12.690
360.21	12.984
360.57	12.204
360.93	13.258
361.29	12.281
361.66	12.744
362.02	13.083
362.38	14.406
362.74	13.617
363.10	13.961
363.46	12.950
363.82	13.139
364.18	13.934
364.54	13.831
364.90	13.779
365.26	12.483
365.62	14.200
365.98	13.751
366.35	12.685
366.71	12.925
367.07	13.599
367.43	14.576
367.79	14.466
368.15	13.512
368.51	13.532
368.87	13.782
369.23	14.067
369.59	13.388
369.95	13.928
370.31	14.045
370.67	13.755
371.03	14.681
371.39	13.768
371.75	13.893
372.11	13.618
372.47	12.458
372.83	14.332
373.19	13.676
373.55	13.550
373.91	13.906
374.27	14.295
374.63	14.276
374.99	14.523
375.35	14.286
375.71	13.935
376.07	14.848
376.42	13.413
376.78	14.481
377.14	14.348
377.50	14.485
377.86	15.333
378.22	14.850
378.58	14.209
378.94	14.847
379.30	14.528
379.66	14.874
380.02	15.003
380.38	15.092
380.74	14.648
381.09	14.692
381.45	14.943
381.81	15.164
382.17	15.618
382.53	14.386
382.89	15.632
383.25	15.299
383.61	14.583
383.97	15.371
384.32	14.892
384.68	15.313
385.04	16.541
385.40	16.028
385.76	15.592
386.12	16.158
386.48	15.471
386.83	16.091
387.19	15.991
387.55	15.493
387.91	15.639
388.27	16.570
388.62	15.464
388.98	15.849
389.34	16.559
389.70	16.793
390.06	15.986
390.42	16.446
390.77	17.399
391.13	16.901
391.49	17.452
391.85	16.061
392.20	16.904
392.56	17.011
392.92	17.721
393.28	17.137
393.64	16.257
393.99	17.141
394.35	16.764
394.71	17.665
395.07	16.647
395.42	16.790
395.78	17.733
396.14	17.409
396.50	17.518
396.85	17.352
397.21	17.101
397.57	17.550
397.92	17.812
398.28	16.947
398.64	16.762
399.00	17.592
399.35	17.173
399.71	16.793
400.07	17.462
400.42	17.462
400.78	17.708
401.14	18.213
401.49	18.078
401.85	18.023
402.21	18.308
402.57	18.251
402.92	18.499
403.28	17.155
403.63	17.900
403.99	17.933
404.35	17.851
404.70	18.130
405.06	18.098
405.42	17.974
405.77	18.593
406.13	18.044
406.49	18.863
406.84	18.338
407.20	18.614
407.55	18.474
407.91	19.359
408.27	18.375
408.62	19.255
408.98	18.920
409.34	18.358
409.69	19.530
410.05	19.871
410.40	18.561
410.76	18.901
411.11	19.229
411.47	18.919
411.83	19.518
412.18	19.398
412.54	20.154
412.89	19.034
413.25	19.244
413.60	18.840
413.96	19.755
414.31	19.263
414.67	19.320
415.03	18.769
415.38	18.033
415.74	19.243
416.09	19.988
416.45	19.349
416.80	19.278
417.16	19.668
417.51	19.801
417.87	19.068
418.22	19.222
418.58	19.145
418.93	20.198
419.29	20.222
419.64	20.468
420.00	19.763
420.35	19.203
420.71	19.529
421.06	19.666
421.42	20.011
421.77	19.278
422.12	19.926
422.48	19.406
422.83	19.880
423.19	19.947
423.54	20.354
423.90	19.989
424.25	20.693
424.61	19.977
424.96	20.538
425.31	20.488
425.67	19.860
426.02	19.148
426.38	20.608
426.73	20.033
427.09	21.223
427.44	19.716
427.79	20.066
428.15	20.491
428.50	20.955
428.85	20.207
429.21	20.319
429.56	20.237
429.92	19.558
430.27	20.434
430.62	20.127
430.98	20.069
431.33	20.235
431.68	20.163
432.04	20.061
432.39	20.461
432.74	21.119
433.10	20.606
433.45	20.401
433.80	20.333
434.16	20.248
434.51	20.915
434.86	20.521
435.22	21.732
435.57	21.285
435.92	20.534
436.28	20.250
436.63	21.464
436.98	20.236
437.34	21.082
437.69	20.308
438.04	21.100
438.39	20.678
438.75	21.195
439.10	21.564
439.45	21.688
439.81	21.186
440.16	20.536
440.51	21.349
440.86	21.345
441.22	21.115
441.57	20.964
441.92	21.532
442.27	21.768
442.63	21.162
442.98	22.305
443.33	22.409
443.68	22.002
444.03	22.248
444.39	22.145
444.74	22.307
445.09	22.250
445.44	21.760
445.79	21.600
446.15	22.045
446.50	22.067
446.85	22.422
447.20	22.389
447.55	22.176
447.91	21.414
448.26	21.723
448.61	22.317
448.96	22.854
449.31	21.156
449.66	22.549
450.02	22.310
450.37	22.696
450.72	22.228
451.07	22.836
451.42	22.126
451.77	22.179
452.12	22.799
452.47	22.519
452.83	22.466
453.18	21.716
453.53	21.310
453.88	21.977
454.23	22.316
454.58	22.809
454.93	22.451
455.28	23.660
455.63	22.570
455.98	23.017
456.34	22.085
456.69	22.399
457.04	21.986
457.39	23.004
457.74	23.154
458.09	22.186
458.44	22.737
458.79	22.125
459.14	22.444
459.49	22.920
459.84	22.875
460.19	21.877
460.54	22.430
460.89	22.869
461.24	21.782
461.59	23.022
461.94	22.019
462.29	23.012
462.64	23.235
462.99	22.285
463.34	23.167
463.69	22.567
464.04	23.402
464.39	22.534
464.74	22.520
465.09	22.895
465.44	23.444
465.79	22.581
466.14	23.398
466.49	22.421
466.84	22.920
467.19	22.717
467.54	22.150
467.89	23.506
468.24	23.324
468.59	22.351
468.94	22.378
469.29	23.335
469.64	21.551
469.99	22.817
470.34	23.948
470.68	23.650
471.03	24.100
471.38	22.760
471.73	22.757
472.08	23.541
472.43	22.878
472.78	23.426
473.13	23.578
473.48	24.109
473.83	23.738
474.17	23.798
474.52	23.271
474.87	23.810
475.22	23.549
475.57	23.728
475.92	23.046
476.27	23.962
476.61	23.313
476.96	22.628
477.31	23.069
477.66	24.502
478.01	23.284
478.36	22.981
478.70	22.906
479.05	24.540
479.40	24.087
479.75	23.919
480.10	23.306
480.45	23.428
480.79	23.991
481.14	23.392
481.49	24.035
481.84	23.803
482.19	23.183
482.53	23.699
482.88	23.793
483.23	23.922
483.58	23.406
483.92	23.582
484.27	23.497
484.62	22.855
484.97	23.639
485.31	23.372
485.66	22.576
486.01	22.216
486.36	22.409
486.70	23.089
487.05	23.653
487.40	23.682
487.75	23.588
488.09	23.161
488.44	22.811
488.79	23.676
489.13	23.316
489.48	22.990
489.83	24.346
490.17	22.762
490.52	23.153
490.87	23.858
491.22	23.744
491.56	23.422
491.91	23.812
492.26	23.799
492.60	23.830
492.95	23.738
493.30	23.980
493.64	23.390
493.99	22.807
494.34	23.432
494.68	23.469
495.03	24.493
495.37	24.678
495.72	23.719
496.07	23.576
496.41	23.338
496.76	23.561
497.11	23.822
497.45	23.651
497.80	24.256
498.14	23.628
498.49	23.713
498.84	23.492
499.18	24.247
499.53	23.901
499.87	24.440
500.22	23.241
500.56	23.977
500.91	23.982
501.26	25.045
501.60	23.199
501.95	23.535
502.29	24.616
502.64	24.224
502.98	24.590
503.33	23.974
503.67	23.768
504.02	24.212
504.36	24.888
504.71	24.575
505.06	24.102
505.40	24.223
505.75	23.406
506.09	24.586
506.44	24.373
506.78	24.954
507.13	24.804
507.47	25.201
507.82	24.716
508.16	24.761
508.51	24.613
508.85	24.846
509.19	24.586
509.54	25.408
509.88	24.526
510.23	25.449
510.57	25.810
510.92	25.448
511.26	25.012
511.61	25.060
511.95	25.720
512.30	25.800
512.64	25.937
512.98	25.413
513.33	26.210
513.67	25.395
514.02	25.856
514.36	25.575
514.70	25.990
515.05	24.974
515.39	26.562
515.74	26.193
516.08	25.674
516.42	26.217
516.77	26.183
517.11	25.322
517.46	27.094
517.80	26.243
518.14	26.551
518.49	26.844
518.83	25.918
519.17	25.363
519.52	26.520
519.86	25.660
520.20	25.719
520.55	26.506
520.89	27.140
521.23	26.633
521.58	27.006
521.92	26.742
522.26	26.575
522.61	25.868
522.95	25.721
523.29	26.667
523.64	26.626
523.98	25.898
524.32	27.278
524.66	27.205
525.01	27.010
525.35	25.962
525.69	25.696
526.04	25.488
526.38	26.782
526.72	27.393
527.06	26.569
527.41	27.230
527.75	27.197
528.09	26.741
528.43	26.169
528.78	26.936
529.12	26.778
529.46	26.476
529.80	26.945
530.15	27.072
530.49	26.690
530.83	27.332
531.17	26.284
531.51	26.414
531.86	26.322
532.20	26.951
532.54	26.511
532.88	27.515
533.22	27.225
533.57	27.063
533.91	26.768
534.25	26.230
534.59	27.299
534.93	26.259
535.27	26.366
535.62	27.516
535.96	27.077
536.30	26.557
536.64	26.967
536.98	27.737
537.32	26.852
537.66	28.322
538.01	26.767
538.35	26.370
538.69	25.721
539.03	26.977
539.37	26.620
539.71	26.667
540.05	27.038
540.39	26.284
540.73	25.683
541.07	25.199
541.42	26.108
541.76	26.335
542.10	26.236
542.44	26.309
542.78	26.460
543.12	26.877
543.46	27.961
543.80	25.959
544.14	26.451
544.48	26.950
544.82	26.750
545.16	27.847
545.50	26.423
545.84	26.209
546.18	27.716
546.52	25.796
546.86	27.484
547.20	27.481
547.54	26.904
547.88	26.462
548.22	26.959
548.56	25.980
548.90	26.448
549.24	26.626
549.58	26.940
549.92	26.658
550.26	26.861
550.60	27.505
550.94	26.843
551.28	28.053
551.62	27.493
551.96	27.314
552.30	26.832
552.64	27.567
552.98	26.076
553.32	27.395
553.66	26.559
554.00	27.112
554.34	26.963
554.68	26.791
555.02	26.873
555.36	27.153
555.69	26.521
556.03	26.608
556.37	27.159
556.71	26.379
557.05	28.051
557.39	26.277
557.73	27.081
558.07	27.417
558.41	27.575
558.75	27.519
559.08	27.557
559.42	26.955
559.76	27.001
560.10	27.528
560.44	27.902
560.78	27.562
561.12	25.739
561.45	27.494
561.79	26.068
562.13	27.665
562.47	26.942
562.81	28.038
563.15	26.199
563.48	26.911
563.82	26.965
564.16	26.529
564.50	27.354
564.84	26.549
565.17	26.471
565.51	25.777
565.85	27.197
566.19	26.325
566.52	26.097
566.86	26.769
567.20	26.156
567.54	26.713
567.88	26.656
568.21	26.235
568.55	26.715
568.89	27.009
569.23	26.320
569.56	26.065
569.90	26.087
570.24	25.734
570.57	25.529
570.91	24.923
571.25	25.918
571.59	25.633
571.92	25.613
572.26	25.304
572.60	25.280
572.93	25.383
573.27	25.176
573.61	25.172
573.95	24.982
574.28	24.971
574.62	24.557
574.96	24.768
575.29	24.741
575.63	24.555
575.97	24.862
576.30	24.574
576.64	24.911
576.98	24.738
577.31	24.704
577.65	24.742
577.98	24.642
578.32	24.343
578.66	24.256
578.99	24.432
579.33	24.878
579.67	24.955
580.00	24.500
580.34	24.695
580.67	24.559
581.01	24.643
581.35	24.664
581.68	24.011
582.02	24.463
582.35	25.058
582.69	24.598
583.02	24.687
583.36	25.118
583.70	25.131
584.03	24.934
584.37	24.488
584.70	24.621
585.04	24.087
585.37	24.901
585.71	24.660
586.04	24.813
586.38	24.791
586.72	24.693
587.05	24.303
587.39	25.505
587.72	24.904
588.06	25.484
588.39	24.770
588.73	25.185
589.06	25.423
589.40	25.630
589.73	25.257
590.07	25.431
590.40	25.761
590.73	25.239
591.07	25.093
591.40	25.311
591.74	25.278
592.07	26.066
592.41	25.552
592.74	25.559
593.08	25.637
593.41	25.605
593.75	25.029
594.08	25.689
594.41	25.224
594.75	25.307
595.08	25.168
595.42	25.032
595.75	24.927
596.09	26.195
596.42	25.869
596.75	25.511
597.09	25.859
597.42	25.626
597.75	25.794
598.09	25.952
598.42	26.136
598.76	25.869
599.09	25.525
599.42	24.673
599.76	25.025
600.09	25.192
600.42	25.692
600.76	25.231
601.09	25.390
601.42	25.232
601.76	25.276
602.09	25.268
602.42	25.954
602.76	25.240
603.09	25.514
603.42	25.542
603.76	24.771
604.09	25.834
604.42	25.174
604.76	24.772
605.09	25.648
605.42	26.196
605.75	25.769
606.09	26.054
606.42	25.100
606.75	25.187
607.09	24.731
607.42	25.626
607.75	25.244
608.08	25.138
608.42	24.909
608.75	25.705
609.08	25.255
609.41	25.761
609.75	25.893
610.08	25.682
610.41	24.724
610.74	25.168
611.07	26.110
611.41	26.099
611.74	26.374
612.07	26.274
612.40	25.808
612.73	25.770
613.07	26.064
613.40	25.313
613.73	26.432
614.06	26.349
614.39	25.656
614.72	25.764
615.06	25.650
615.39	25.471
615.72	25.166
616.05	25.935
616.38	26.236
616.71	26.437
617.05	25.879
617.38	26.217
617.71	26.458
618.04	25.904
618.37	26.776
618.70	27.545
619.03	26.225
619.36	26.634
619.69	26.457
620.03	26.679
620.36	25.828
620.69	26.403
621.02	27.428
621.35	27.721
621.68	26.970
622.01	25.765
622.34	27.057
622.67	27.079
623.00	27.126
623.33	27.273
623.66	26.654
623.99	26.399
624.32	26.836
624.65	26.898
624.99	27.698
625.32	27.106
625.65	27.242
625.98	27.186
626.31	26.577
626.64	27.326
626.97	26.557
627.30	27.790
627.63	27.007
627.96	28.453
628.29	28.249
628.62	27.372
628.95	28.659
629.28	27.273
629.61	27.609
629.94	27.448
630.26	27.119
630.59	27.029
630.92	27.619
631.25	29.249
631.58	30.226
631.91	27.835
632.24	29.203
632.57	27.989
632.90	28.185
633.23	28.265
633.56	28.265
633.89	27.583
634.22	29.626
634.55	29.228
634.88	29.221
635.20	29.064
